timestamps,TP9,AF7,AF8,TP10,Right AUX
1760229773.202,17.578,-35.645,-23.926,-46.875,0.000
1760229773.206,-18.066,-39.551,-17.090,-63.965,0.000
1760229773.210,-69.824,-41.016,-18.066,-39.062,0.000
1760229773.214,-39.551,-40.527,-18.555,-17.578,0.000
1760229773.218,-37.109,-44.434,-20.508,-35.156,0.000
1760229773.221,-68.848,-39.551,-19.043,-35.156,0.000
1760229773.225,-41.016,-40.039,-11.230,-31.738,0.000
1760229773.229,-22.949,-41.504,-9.277,-38.574,0.000
1760229773.233,-25.879,-41.992,-12.695,-32.715,0.000
1760229773.237,-29.297,-38.574,-14.160,-27.832,0.000
1760229773.241,-14.160,-32.227,-12.207,-22.461,0.000
1760229773.245,22.949,-35.156,-19.043,-30.273,0.000
1760229773.249,-21.973,-34.180,-20.508,-41.992,0.000
1760229773.253,-66.895,-34.180,-19.043,-44.434,0.000
1760229773.257,-52.734,-37.598,-20.020,-37.109,0.000
1760229773.261,-35.645,-38.086,-19.531,-36.621,0.000
1760229773.264,-24.414,-40.527,-20.996,-41.016,0.000
1760229773.268,-9.766,-39.551,-24.414,-28.320,0.000
1760229773.272,-8.789,-41.504,-32.227,-29.785,0.000
1760229773.276,-63.477,-41.504,-30.762,-33.691,0.000
1760229773.280,-48.340,-31.250,-31.738,-36.133,0.000
1760229773.284,20.508,-28.320,-34.180,-29.785,0.000
1760229773.288,-7.324,-31.738,-27.344,-27.344,0.000
1760229773.292,-70.312,-33.691,-27.344,-44.922,0.000
1760229773.296,-65.430,-29.785,-25.879,-38.086,0.000
1760229773.300,-43.945,-31.738,-27.832,-38.574,0.000
1760229773.304,-38.086,-36.133,-27.344,-41.016,0.000
1760229773.307,-17.090,-35.156,-23.438,-34.180,0.000
1760229773.311,-30.273,-38.574,-27.832,-44.434,0.000
1760229773.315,-10.254,-35.645,-28.809,-31.250,0.000
1760229773.319,0.000,-40.527,-32.227,-29.297,0.000
1760229773.323,-49.805,-41.504,-36.133,-36.133,0.000
1760229773.327,-78.613,-34.180,-37.109,-28.809,0.000
1760229773.331,-77.148,-39.551,-31.738,-41.992,0.000
1760229773.335,-45.898,-32.715,-29.785,-41.504,0.000
1760229773.339,-40.039,-29.785,-34.180,-42.969,0.000
1760229773.343,-30.273,-36.621,-32.227,-63.477,0.000
1760229773.346,-28.809,-36.621,-25.391,-57.617,0.000
1760229773.350,-42.480,-36.133,-24.414,-45.898,0.000
1760229773.354,5.859,-36.133,-30.762,-57.617,0.000
1760229773.358,-4.395,-36.621,-32.715,-52.734,0.000
1760229773.362,-76.172,-38.086,-24.414,-38.574,0.000
1760229773.366,-84.473,-39.062,-21.973,-47.363,0.000
1760229773.370,-58.105,-36.621,-21.484,-49.316,0.000
1760229773.374,-40.527,-41.992,-22.949,-44.922,0.000
1760229773.378,-26.367,-38.086,-25.391,-34.668,0.000
1760229773.382,-5.371,-28.320,-21.973,-25.391,0.000
1760229773.385,-54.199,-32.715,-25.879,-56.152,0.000
1760229773.389,-58.105,-36.621,-31.738,-57.129,0.000
1760229773.393,-31.250,-32.227,-29.785,-53.711,0.000
1760229773.397,-21.484,-27.344,-22.461,-57.129,0.000
1760229773.401,-17.578,-30.273,-21.484,-46.387,0.000
1760229773.405,-20.996,-38.086,-24.902,-52.734,0.000
1760229773.409,-29.297,-38.574,-23.926,-14.648,0.000
1760229773.413,-45.898,-34.668,-21.484,-16.602,0.000
1760229773.417,-68.359,-36.133,-22.461,-60.059,0.000
1760229773.421,-35.645,-35.645,-27.832,-49.805,0.000
1760229773.425,-28.320,-28.809,-24.414,-43.945,0.000
1760229773.428,-42.969,-31.738,-18.066,-43.945,0.000
1760229773.432,-34.668,-36.133,-19.531,-18.555,0.000
1760229773.436,-5.859,-35.645,-20.508,-18.555,0.000
1760229773.440,0.000,-36.133,-24.414,-34.180,0.000
1760229773.444,-51.758,-34.668,-26.367,-6.348,0.000
1760229773.448,-46.387,-30.762,-25.391,-16.113,0.000
1760229773.452,-32.227,-31.250,-27.832,-36.133,0.000
1760229773.456,-10.254,-31.738,-26.367,-21.973,0.000
1760229773.460,9.766,-24.902,-26.367,-8.301,0.000
1760229773.464,-10.742,-20.508,-27.832,-13.184,0.000
1760229773.468,-14.160,-21.484,-23.926,-27.344,0.000
1760229773.471,-38.574,-26.855,-19.531,-32.715,0.000
1760229773.475,-46.387,-31.738,-23.438,-33.691,0.000
1760229773.479,-16.602,-30.273,-22.949,-17.578,0.000
1760229773.483,-41.992,-30.273,-15.625,-31.250,0.000
1760229773.487,-4.395,-33.203,-16.113,-43.457,0.000
1760229773.491,37.109,-31.738,-18.555,-23.926,0.000
1760229773.495,-46.875,-26.855,-22.949,-38.574,0.000
1760229773.499,-67.383,-20.020,-26.367,-29.785,0.000
1760229773.503,-27.344,-18.555,-28.809,-28.320,0.000
1760229773.507,-27.832,-21.973,-29.785,-64.453,0.000
1760229773.511,-40.527,-22.949,-25.879,-55.664,0.000
1760229773.514,-42.969,-22.949,-20.996,-41.504,0.000
1760229773.518,-22.461,-25.391,-20.996,-35.156,0.000
1760229773.522,37.598,-29.785,-22.949,-42.969,0.000
1760229773.526,-1.465,-30.273,-23.926,-41.992,0.000
1760229773.530,-79.590,-26.367,-25.391,-47.363,0.000
1760229773.534,-45.898,-32.715,-26.855,-43.945,0.000
1760229773.538,-3.418,-41.016,-23.438,-49.805,0.000
1760229773.542,-61.035,-39.551,-20.020,-28.320,0.000
1760229773.546,-96.680,-39.062,-24.414,-36.621,0.000
1760229773.550,-56.152,-41.016,-30.273,-83.984,0.000
1760229773.554,-47.363,-40.039,-27.832,-56.641,0.000
1760229773.557,-64.453,-37.598,-19.531,-34.668,0.000
1760229773.561,-41.992,-29.297,-18.066,-31.738,0.000
1760229773.565,-19.043,-21.484,-21.973,-50.781,0.000
1760229773.569,-26.855,-27.832,-22.461,-45.410,0.000
1760229773.573,-43.945,-31.738,-26.367,-33.203,0.000
1760229773.577,-38.086,-30.273,-27.344,-55.176,0.000
1760229773.581,-40.039,-33.691,-27.344,-49.316,0.000
1760229773.585,-51.758,-34.180,-26.367,-54.199,0.000
1760229773.589,-45.898,-34.180,-21.973,-60.547,0.000
1760229773.593,-19.043,-31.250,-19.531,-42.480,0.000
1760229773.596,-33.203,-31.738,-23.438,-40.527,0.000
1760229773.600,-51.758,-36.133,-24.414,-45.898,0.000
1760229773.604,-20.508,-37.598,-22.949,-49.805,0.000
1760229773.608,-70.312,-41.016,-24.414,-34.180,0.000
1760229773.612,-55.176,-37.598,-23.438,-32.227,0.000
1760229773.616,-21.484,-36.621,-27.344,-41.504,0.000
1760229773.620,-27.832,-36.133,-29.297,-39.062,0.000
1760229773.624,-24.414,-33.203,-30.762,-50.781,0.000
1760229773.628,-3.418,-33.203,-30.762,-59.570,0.000
1760229773.632,4.883,-29.297,-31.738,-45.410,0.000
1760229773.636,-66.895,-29.785,-32.715,-25.879,0.000
1760229773.639,-61.035,-31.250,-27.832,-2.441,0.000
1760229773.643,-41.992,-32.715,-25.879,-18.555,0.000
1760229773.647,-45.410,-34.668,-26.855,-42.480,0.000
1760229773.651,-33.691,-34.180,-24.902,-42.480,0.000
1760229773.655,-15.137,-26.367,-24.902,-30.273,0.000
1760229773.659,-12.695,-26.367,-25.879,-18.555,0.000
1760229773.663,-20.996,-28.320,-28.320,-47.363,0.000
1760229773.667,-18.066,-31.250,-32.715,-66.406,0.000
1760229773.671,-6.348,-37.109,-28.809,-46.387,0.000
1760229773.675,-22.461,-39.062,-23.438,-35.645,0.000
1760229773.679,-25.391,-39.551,-24.902,-19.043,0.000
1760229773.682,-7.812,-35.645,-25.391,-24.902,0.000
1760229773.686,-6.836,-30.762,-26.855,-30.273,0.000
1760229773.690,-31.738,-32.715,-31.250,-41.504,0.000
1760229773.694,-76.660,-38.574,-32.227,-42.969,0.000
1760229773.698,-72.266,-37.598,-28.320,-16.113,0.000
1760229773.702,-15.625,-34.180,-26.367,-34.180,0.000
1760229773.706,-12.695,-35.156,-27.344,-45.410,0.000
1760229773.710,-56.152,-36.133,-27.344,-42.480,0.000
1760229773.714,-61.523,-41.504,-28.809,-45.410,0.000
1760229773.718,-37.109,-38.086,-32.227,-55.664,0.000
1760229773.721,-18.066,-26.855,-27.344,-49.805,0.000
1760229773.725,-5.371,-30.273,-29.297,-15.625,0.000
1760229773.729,-0.977,-32.715,-35.156,-28.320,0.000
1760229773.733,-53.223,-37.598,-35.645,-47.852,0.000
1760229773.737,-81.055,-42.480,-36.133,-39.551,0.000
1760229773.741,-70.801,-40.527,-35.156,-41.016,0.000
1760229773.745,-48.828,-43.945,-34.668,-29.785,0.000
1760229773.749,2.441,-42.480,-33.203,-22.461,0.000
1760229773.753,-16.602,-36.621,-37.598,-27.344,0.000
1760229773.757,-59.570,-34.180,-37.109,-55.176,0.000
1760229773.760,-62.012,-33.691,-30.273,-38.574,0.000
1760229773.764,-16.602,-30.273,-29.297,-16.602,0.000
1760229773.768,27.344,-31.250,-30.273,-38.574,0.000
1760229773.772,-25.879,-39.062,-29.297,-53.711,0.000
1760229773.776,-80.566,-37.598,-25.391,-21.973,0.000
1760229773.780,-78.125,-33.691,-22.461,-21.973,0.000
1760229773.784,-0.977,-32.715,-23.926,-53.711,0.000
1760229773.788,-7.812,-28.809,-22.461,-50.781,0.000
1760229773.792,-89.355,-32.227,-14.648,-42.480,0.000
1760229773.796,-70.312,-38.574,-14.160,-47.852,0.000
1760229773.800,-39.062,-35.156,-19.531,-36.621,0.000
1760229773.803,-17.578,-27.832,-22.461,-22.461,0.000
1760229773.807,-15.137,-24.902,-26.367,-9.766,0.000
1760229773.811,-22.949,-29.785,-27.832,-25.391,0.000
1760229773.815,-22.461,-28.809,-23.926,-50.293,0.000
1760229773.819,-28.320,-27.344,-24.902,-45.898,0.000
1760229773.823,-42.480,-30.762,-27.344,-57.617,0.000
1760229773.827,-19.531,-31.738,-29.297,-55.176,0.000
1760229773.831,-45.410,-37.598,-33.203,-48.340,0.000
1760229773.835,-52.246,-37.598,-32.715,-63.477,0.000
1760229773.839,-43.457,-35.156,-31.250,-42.480,0.000
1760229773.843,-68.848,-34.180,-33.691,-32.715,0.000
1760229773.846,-43.945,-32.715,-34.668,-51.270,0.000
1760229773.850,-29.297,-32.715,-31.738,-42.480,0.000
1760229773.854,-44.434,-31.250,-33.203,-38.086,0.000
1760229773.858,-33.203,-32.227,-36.621,-49.805,0.000
1760229773.862,-28.320,-33.691,-36.133,-44.434,0.000
1760229773.866,-27.832,-26.367,-37.109,-35.156,0.000
1760229773.870,-6.348,-23.438,-33.691,-29.785,0.000
1760229773.874,9.277,-30.762,-31.250,-25.391,0.000
1760229773.878,-43.457,-32.715,-30.273,-36.133,0.000
1760229773.882,-83.984,-30.273,-29.297,-54.688,0.000
1760229773.886,-61.523,-28.809,-26.367,-41.504,0.000
1760229773.889,-20.508,-24.902,-22.949,-26.855,0.000
1760229773.893,-18.066,-23.438,-27.344,-40.527,0.000
1760229773.897,-17.578,-26.367,-31.250,-31.738,0.000
1760229773.901,12.695,-29.785,-29.297,-29.297,0.000
1760229773.905,-10.742,-34.668,-28.320,-38.086,0.000
1760229773.909,-38.086,-37.598,-32.715,-37.109,0.000
1760229773.913,-32.227,-30.273,-33.203,-40.039,0.000
1760229773.917,-23.438,-32.715,-29.297,-55.176,0.000
1760229773.921,-28.320,-43.457,-29.297,-64.941,0.000
1760229773.925,-43.457,-40.039,-29.297,-42.480,0.000
1760229773.929,-33.691,-41.016,-32.227,-25.391,0.000
1760229773.932,-44.922,-45.898,-32.715,-42.480,0.000
1760229773.936,-35.156,-44.922,-29.785,-53.223,0.000
1760229773.940,-12.695,-39.062,-34.180,-51.758,0.000
1760229773.944,-29.785,-30.762,-35.645,-44.434,0.000
1760229773.948,-21.484,-35.156,-34.180,-38.086,0.000
1760229773.952,-24.902,-38.574,-35.156,-50.293,0.000
1760229773.956,-33.203,-36.133,-34.180,-68.848,0.000
1760229773.960,-2.441,-37.598,-28.320,-49.316,0.000
1760229773.964,-20.020,-38.574,-22.461,-19.531,0.000
1760229773.968,-56.641,-29.297,-24.902,-36.133,0.000
1760229773.971,-49.805,-28.809,-31.250,-26.367,0.000
1760229773.975,-27.344,-34.180,-27.344,-23.438,0.000
1760229773.979,-22.949,-37.109,-21.484,-21.973,0.000
1760229773.983,-33.203,-35.645,-27.832,-30.762,0.000
1760229773.987,-41.016,-36.133,-30.762,-55.176,0.000
1760229773.991,-21.973,-41.016,-28.809,-50.293,0.000
1760229773.995,-25.391,-41.016,-31.250,-58.105,0.000
1760229773.999,-40.039,-42.969,-34.668,-58.105,0.000
1760229774.003,-37.109,-40.527,-31.250,-58.594,0.000
1760229774.007,-51.270,-39.062,-24.902,-41.992,0.000
1760229774.011,-63.477,-42.969,-26.367,-42.969,0.000
1760229774.014,-63.965,-42.969,-27.832,-57.129,0.000
1760229774.018,-23.926,-39.062,-23.438,-41.992,0.000
1760229774.022,-10.254,-30.273,-21.973,-29.785,0.000
1760229774.026,-47.363,-25.879,-21.973,-32.715,0.000
1760229774.030,-42.969,-28.809,-22.949,-38.574,0.000
1760229774.034,-17.578,-30.273,-21.973,-35.645,0.000
1760229774.038,-4.883,-33.691,-22.949,-43.945,0.000
1760229774.042,-30.762,-30.762,-26.367,-65.918,0.000
1760229774.046,-27.344,-28.320,-24.902,-60.547,0.000
1760229774.050,-17.578,-28.809,-20.020,-44.922,0.000
1760229774.054,-19.043,-28.320,-19.531,-38.086,0.000
1760229774.057,-5.371,-30.273,-21.973,-27.832,0.000
1760229774.061,-55.664,-31.738,-20.508,-22.949,0.000
1760229774.065,-62.012,-34.668,-18.555,-51.758,0.000
1760229774.069,-38.086,-34.668,-17.090,-37.598,0.000
1760229774.073,-48.340,-28.320,-19.531,-2.930,0.000
1760229774.077,-41.504,-27.832,-21.484,-52.246,0.000
1760229774.081,-18.066,-34.668,-17.578,-75.684,0.000
1760229774.085,-37.109,-39.062,-13.672,-47.363,0.000
1760229774.089,-20.996,-35.645,-15.137,-41.504,0.000
1760229774.093,-11.230,-35.645,-19.043,-51.270,0.000
1760229774.096,-52.246,-35.156,-20.508,-42.480,0.000
1760229774.100,-49.805,-28.809,-21.973,-48.340,0.000
1760229774.104,-56.641,-32.227,-25.879,-38.086,0.000
1760229774.108,-6.348,-34.668,-28.320,-31.250,0.000
1760229774.112,-0.488,-39.062,-26.367,-46.387,0.000
1760229774.116,-68.848,-42.969,-26.855,-20.996,0.000
1760229774.120,-50.781,-36.133,-27.344,-18.066,0.000
1760229774.124,-11.230,-32.227,-25.879,-37.598,0.000
1760229774.128,-29.785,-34.668,-22.461,-45.898,0.000
1760229774.132,-53.223,-32.227,-23.926,-44.434,0.000
1760229774.135,-56.641,-27.344,-23.438,-43.945,0.000
1760229774.139,-40.527,-30.762,-19.043,-36.133,0.000
1760229774.143,-16.113,-30.273,-20.996,-37.598,0.000
1760229774.147,-12.695,-22.949,-23.438,-56.641,0.000
1760229774.151,-9.277,-24.902,-22.949,-38.574,0.000
1760229774.155,-29.785,-27.832,-23.438,-28.809,0.000
1760229774.159,-44.434,-25.391,-25.879,-51.758,0.000
1760229774.163,-37.109,-28.809,-28.320,-28.320,0.000
1760229774.167,-41.504,-28.809,-23.926,-30.273,0.000
1760229774.171,-25.391,-31.250,-22.461,-50.293,0.000
1760229774.175,-10.254,-37.598,-25.391,-42.969,0.000
1760229774.178,31.738,-33.691,-31.250,-53.711,0.000
1760229774.182,11.719,-29.785,-28.809,-39.551,0.000
1760229774.186,-72.266,-27.344,-19.043,-19.531,0.000
1760229774.190,-65.918,-24.902,-19.043,-39.551,0.000
1760229774.194,-62.500,-28.809,-22.949,-48.828,0.000
1760229774.198,-55.664,-35.156,-28.320,-59.082,0.000
1760229774.202,-38.086,-32.227,-25.879,-55.664,0.000
1760229774.206,-30.762,-30.273,-20.996,-43.457,0.000
1760229774.210,-12.207,-26.855,-20.508,-43.945,0.000
1760229774.214,4.395,-26.855,-26.855,-43.945,0.000
1760229774.218,-8.789,-30.273,-30.762,-28.320,0.000
1760229774.221,-32.715,-25.391,-28.320,-14.648,0.000
1760229774.225,-17.578,-25.879,-23.926,-25.879,0.000
1760229774.229,16.602,-26.367,-20.508,-38.574,0.000
1760229774.233,-4.883,-19.043,-20.508,-40.039,0.000
1760229774.237,-52.734,-23.926,-20.508,-31.738,0.000
1760229774.241,-68.359,-30.762,-25.879,-30.762,0.000
1760229774.245,-51.270,-25.391,-31.250,-28.320,0.000
1760229774.249,-25.391,-26.367,-25.879,-47.852,0.000
1760229774.253,-24.902,-32.227,-22.949,-61.035,0.000
1760229774.257,-20.020,-27.344,-25.879,-33.203,0.000
1760229774.261,7.812,-29.297,-27.832,-20.508,0.000
1760229774.264,15.137,-33.203,-27.832,-36.133,0.000
1760229774.268,-31.738,-34.668,-25.391,-32.715,0.000
1760229774.272,-43.457,-33.691,-22.461,-20.996,0.000
1760229774.276,-37.598,-31.738,-26.855,-15.625,0.000
1760229774.280,-45.898,-38.086,-34.180,-32.227,0.000
1760229774.284,-51.758,-42.969,-30.762,-41.504,0.000
1760229774.288,-29.297,-41.504,-28.320,-31.250,0.000
1760229774.292,-1.465,-46.387,-25.391,-31.250,0.000
1760229774.296,-19.531,-50.293,-26.855,-30.273,0.000
1760229774.300,-43.457,-44.922,-26.855,-31.250,0.000
1760229774.304,-61.523,-42.969,-20.508,-46.875,0.000
1760229774.307,-51.758,-41.504,-19.043,-57.129,0.000
1760229774.311,-39.551,-38.086,-22.461,-47.852,0.000
1760229774.315,-42.969,-36.133,-24.902,-39.551,0.000
1760229774.319,-43.457,-32.715,-29.785,-44.434,0.000
1760229774.323,-42.480,-38.574,-33.691,-29.785,0.000
1760229774.327,-27.832,-39.062,-34.180,-35.156,0.000
1760229774.331,-22.949,-36.621,-33.691,-51.270,0.000
1760229774.335,-10.742,-36.133,-31.250,-46.875,0.000
1760229774.339,-5.859,-30.273,-24.902,-49.805,0.000
1760229774.343,-44.922,-29.297,-23.926,-51.758,0.000
1760229774.346,-28.320,-31.738,-28.320,-53.711,0.000
1760229774.350,-20.020,-33.691,-30.273,-46.387,0.000
1760229774.354,-46.387,-35.156,-32.715,-46.875,0.000
1760229774.358,-62.012,-36.133,-29.785,-31.250,0.000
1760229774.362,-57.617,-35.156,-29.297,-41.504,0.000
1760229774.366,-16.113,-41.016,-30.273,-65.918,0.000
1760229774.370,-13.184,-45.410,-27.344,-45.898,0.000
1760229774.374,-37.109,-33.203,-25.391,-26.855,0.000
1760229774.378,-40.527,-34.180,-28.809,-24.414,0.000
1760229774.382,-14.648,-44.434,-34.180,-44.922,0.000
1760229774.386,-6.836,-47.852,-33.203,-37.598,0.000
1760229774.389,-39.551,-44.922,-32.227,-38.086,0.000
1760229774.393,-50.293,-39.062,-32.227,-68.848,0.000
1760229774.397,-26.367,-33.203,-32.227,-51.758,0.000
1760229774.401,-10.254,-36.133,-32.715,-33.203,0.000
1760229774.405,-28.320,-40.527,-29.297,-34.180,0.000
1760229774.409,-29.785,-38.086,-28.809,-44.434,0.000
1760229774.413,-35.645,-41.504,-28.809,-46.875,0.000
1760229774.417,-65.430,-36.621,-28.320,-43.945,0.000
1760229774.421,-65.918,-33.691,-27.832,-43.945,0.000
1760229774.425,-38.574,-33.691,-27.832,-31.250,0.000
1760229774.428,-8.301,-27.832,-29.785,-35.156,0.000
1760229774.432,-26.367,-27.832,-32.715,-33.203,0.000
1760229774.436,-41.992,-27.832,-33.203,-25.391,0.000
1760229774.440,-19.043,-27.832,-32.227,-38.574,0.000
1760229774.444,-10.254,-31.250,-32.227,-56.152,0.000
1760229774.448,-22.949,-33.203,-32.715,-45.898,0.000
1760229774.452,-23.926,-34.668,-32.227,-46.875,0.000
1760229774.456,-20.508,-42.480,-36.133,-28.809,0.000
1760229774.460,-13.184,-43.457,-34.180,-26.855,0.000
1760229774.464,-28.320,-40.039,-26.855,-52.246,0.000
1760229774.468,-74.219,-33.203,-27.832,-25.391,0.000
1760229774.471,-61.035,-33.203,-27.344,-23.926,0.000
1760229774.475,-33.691,-34.180,-27.344,-48.340,0.000
1760229774.479,-26.855,-34.180,-27.344,-40.527,0.000
1760229774.483,-41.992,-38.574,-23.926,-25.879,0.000
1760229774.487,-35.156,-35.156,-25.879,-30.273,0.000
1760229774.491,-8.789,-28.320,-27.832,-39.551,0.000
1760229774.495,-27.832,-32.227,-27.344,-40.527,0.000
1760229774.499,-30.273,-34.668,-29.785,-44.434,0.000
1760229774.503,-6.348,-35.156,-32.227,-40.039,0.000
1760229774.507,-2.441,-37.598,-31.250,-45.410,0.000
1760229774.510,-44.434,-29.785,-33.691,-63.965,0.000
1760229774.514,-83.496,-30.273,-32.715,-66.895,0.000
1760229774.518,-56.641,-30.762,-26.367,-51.758,0.000
1760229774.522,-23.926,-32.715,-30.273,-41.016,0.000
1760229774.526,-7.812,-34.668,-31.250,-23.926,0.000
1760229774.530,8.301,-31.250,-29.297,-26.367,0.000
1760229774.534,-9.766,-35.645,-28.809,-44.434,0.000
1760229774.538,-72.754,-37.598,-29.297,-60.059,0.000
1760229774.542,-68.848,-33.203,-27.344,-43.945,0.000
1760229774.546,-19.043,-31.738,-24.902,-33.691,0.000
1760229774.550,-15.137,-33.203,-31.250,-50.781,0.000
1760229774.553,-41.992,-35.156,-37.109,-48.340,0.000
1760229774.557,-39.551,-39.062,-34.668,-47.363,0.000
1760229774.561,15.137,-34.668,-33.691,-18.066,0.000
1760229774.565,21.484,-30.273,-36.133,5.371,0.000
1760229774.569,-51.270,-32.715,-38.086,-28.809,0.000
1760229774.573,-78.613,-34.668,-36.621,-62.012,0.000
1760229774.577,-74.219,-32.715,-32.227,-52.246,0.000
1760229774.581,-35.645,-25.391,-30.762,-43.945,0.000
1760229774.585,-27.832,-25.879,-28.809,-47.363,0.000
1760229774.589,-4.395,-26.855,-31.250,-19.043,0.000
1760229774.593,-12.695,-28.320,-38.086,-48.828,0.000
1760229774.596,-51.758,-36.621,-40.039,-63.477,0.000
1760229774.600,-36.133,-32.227,-34.668,-45.898,0.000
1760229774.604,7.324,-30.273,-35.645,-41.992,0.000
1760229774.608,26.367,-36.133,-40.039,-37.598,0.000
1760229774.612,-41.504,-34.180,-38.574,-43.457,0.000
1760229774.616,-58.105,-31.738,-38.574,-32.715,0.000
1760229774.620,-49.316,-34.668,-44.922,-32.715,0.000
1760229774.624,-50.293,-36.133,-44.434,-38.574,0.000
1760229774.628,-19.531,-31.738,-32.715,-38.086,0.000
1760229774.632,-24.902,-27.344,-31.738,-50.781,0.000
1760229774.636,-11.230,-26.367,-28.809,-49.316,0.000
1760229774.639,50.781,-29.297,-20.020,-6.348,0.000
1760229774.643,1.953,-29.785,-23.438,-10.742,0.000
1760229774.647,-56.641,-31.738,-23.438,-51.270,0.000
1760229774.651,-63.965,-39.062,-21.973,-47.363,0.000
1760229774.655,-56.641,-35.156,-23.438,-39.551,0.000
1760229774.659,-15.137,-29.297,-27.832,-16.602,0.000
1760229774.663,40.039,-31.250,-29.785,-6.836,0.000
1760229774.667,23.926,-32.227,-23.926,-34.180,0.000
1760229774.671,-54.199,-30.762,-23.438,-53.223,0.000
1760229774.675,-46.875,-30.273,-29.785,-50.293,0.000
1760229774.678,-51.270,-28.809,-29.297,-54.199,0.000
1760229774.682,-59.082,-31.738,-21.484,-56.152,0.000
1760229774.686,-30.273,-39.062,-20.508,-27.344,0.000
1760229774.690,-37.598,-41.016,-27.344,-26.855,0.000
1760229774.694,-44.434,-38.574,-25.879,-63.965,0.000
1760229774.698,-37.598,-35.156,-20.996,-44.434,0.000
1760229774.702,5.859,-37.109,-19.043,-38.574,0.000
1760229774.706,36.133,-38.574,-20.020,-61.523,0.000
1760229774.710,-38.086,-41.016,-23.438,-26.855,0.000
1760229774.714,-67.871,-41.992,-20.508,-20.020,0.000
1760229774.718,-52.246,-37.598,-16.113,-23.926,0.000
1760229774.721,-37.598,-33.203,-17.578,-18.066,0.000
1760229774.725,-4.883,-31.250,-20.996,-40.039,0.000
1760229774.729,0.488,-27.832,-19.531,-41.992,0.000
1760229774.733,-29.785,-30.273,-19.043,-31.250,0.000
1760229774.737,0.977,-32.715,-27.832,-21.973,0.000
1760229774.741,-41.504,-31.250,-30.762,-15.625,0.000
1760229774.745,-68.848,-36.133,-29.297,-55.664,0.000
1760229774.749,-17.578,-36.133,-30.762,-45.898,0.000
1760229774.753,-36.133,-36.621,-30.273,-39.551,0.000
1760229774.757,-54.688,-38.086,-29.785,-52.246,0.000
1760229774.761,-6.348,-39.062,-26.855,-36.621,0.000
1760229774.764,30.762,-36.621,-29.297,-18.555,0.000
1760229774.768,-26.855,-35.645,-33.691,-19.531,0.000
1760229774.772,-50.293,-41.504,-29.785,-57.617,0.000
1760229774.776,-42.480,-41.504,-28.320,-43.457,0.000
1760229774.780,-55.176,-39.551,-27.344,-43.945,0.000
1760229774.784,-63.477,-41.504,-27.344,-62.988,0.000
1760229774.788,-55.664,-41.504,-29.297,-45.898,0.000
1760229774.792,-14.648,-40.039,-30.762,-22.949,0.000
1760229774.796,-17.578,-41.504,-35.645,-36.621,0.000
1760229774.800,-48.828,-44.922,-32.715,-45.410,0.000
1760229774.803,-33.691,-41.016,-27.344,-22.461,0.000
1760229774.807,-42.969,-33.691,-26.367,-36.133,0.000
1760229774.811,-44.922,-28.320,-24.414,-42.480,0.000
1760229774.815,-36.133,-24.414,-24.902,-36.621,0.000
1760229774.819,-21.484,-22.461,-28.320,-39.551,0.000
1760229774.823,-19.043,-28.809,-25.391,-30.762,0.000
1760229774.827,-33.203,-32.715,-24.414,-35.645,0.000
1760229774.831,-35.156,-32.227,-25.391,-65.430,0.000
1760229774.835,-46.875,-30.762,-25.391,-68.848,0.000
1760229774.839,-3.906,-29.785,-26.855,-30.273,0.000
1760229774.843,-9.277,-29.785,-29.785,-18.066,0.000
1760229774.846,-34.668,-26.855,-22.949,-41.504,0.000
1760229774.850,-47.852,-28.320,-23.438,-52.246,0.000
1760229774.854,-56.152,-30.762,-30.762,-45.410,0.000
1760229774.858,-14.648,-32.715,-25.879,-32.715,0.000
1760229774.862,-19.043,-37.598,-23.438,-33.203,0.000
1760229774.866,-28.809,-35.645,-27.344,-61.035,0.000
1760229774.870,-29.297,-36.133,-27.832,-49.316,0.000
1760229774.874,-72.754,-37.598,-27.832,-21.973,0.000
1760229774.878,-76.660,-31.250,-31.738,-34.668,0.000
1760229774.882,-35.156,-31.250,-26.367,-45.898,0.000
1760229774.885,-19.043,-32.227,-18.066,-35.645,0.000
1760229774.889,-23.438,-30.762,-16.113,-22.949,0.000
1760229774.893,-15.625,-30.762,-20.020,-18.066,0.000
1760229774.897,-7.324,-30.273,-22.949,-9.277,0.000
1760229774.901,-7.324,-29.785,-25.879,-28.809,0.000
1760229774.905,-41.992,-31.250,-26.367,-44.922,0.000
1760229774.909,-37.598,-34.668,-26.855,-43.457,0.000
1760229774.913,-39.062,-33.691,-26.855,-53.223,0.000
1760229774.917,-51.270,-33.691,-23.926,-61.523,0.000
1760229774.921,-50.781,-38.574,-28.320,-53.711,0.000
1760229774.925,-32.715,-36.621,-29.297,-35.156,0.000
1760229774.928,-25.879,-31.250,-23.926,-38.574,0.000
1760229774.932,-32.715,-32.715,-26.367,-53.223,0.000
1760229774.936,-15.625,-33.203,-30.762,-32.715,0.000
1760229774.940,-28.809,-37.598,-27.832,-38.086,0.000
1760229774.944,-13.184,-44.434,-25.391,-48.828,0.000
1760229774.948,-32.715,-45.410,-25.391,-54.199,0.000
1760229774.952,-79.102,-44.922,-30.273,-69.824,0.000
1760229774.956,-43.945,-44.922,-30.762,-55.176,0.000
1760229774.960,-41.504,-45.410,-29.297,-39.062,0.000
1760229774.964,-33.203,-42.480,-33.203,-42.480,0.000
1760229774.968,-28.809,-31.738,-32.227,-46.875,0.000
1760229774.971,-37.109,-28.320,-25.391,-31.738,0.000
1760229774.975,-35.645,-31.250,-23.438,-16.113,0.000
1760229774.979,-25.391,-31.250,-26.367,-25.391,0.000
1760229774.983,-13.184,-33.203,-33.203,-39.062,0.000
1760229774.987,-11.719,-33.203,-33.691,-40.039,0.000
1760229774.991,-11.230,-31.250,-35.645,-44.434,0.000
1760229774.995,-23.926,-36.133,-37.109,-33.203,0.000
1760229774.999,-16.602,-39.062,-35.156,-32.227,0.000
1760229775.003,-39.551,-34.668,-37.109,-37.598,0.000
1760229775.007,-69.336,-27.832,-32.715,-27.344,0.000
1760229775.011,-6.836,-24.902,-32.715,-40.039,0.000
1760229775.014,10.254,-28.320,-38.086,-40.527,0.000
1760229775.018,-29.785,-29.297,-38.574,-30.273,0.000
1760229775.022,-33.203,-29.297,-39.062,-20.996,0.000
1760229775.026,-23.926,-31.250,-38.574,-18.555,0.000
1760229775.030,-20.020,-29.785,-35.645,-48.828,0.000
1760229775.034,-41.504,-33.691,-35.156,-59.082,0.000
1760229775.038,-53.711,-33.203,-29.785,-50.293,0.000
1760229775.042,-46.875,-28.320,-31.738,-42.480,0.000
1760229775.046,-15.625,-30.762,-36.133,-44.434,0.000
1760229775.050,1.953,-34.180,-31.250,-52.734,0.000
1760229775.053,8.789,-34.180,-26.367,-39.551,0.000
1760229775.057,-32.227,-38.574,-25.879,-36.133,0.000
1760229775.061,-74.707,-38.574,-25.879,-26.855,0.000
1760229775.065,-47.852,-25.879,-20.020,-37.109,0.000
1760229775.069,-23.438,-28.809,-18.066,-50.781,0.000
1760229775.073,-54.688,-40.527,-21.484,-33.691,0.000
1760229775.077,-56.152,-41.992,-21.484,-37.598,0.000
1760229775.081,-20.508,-39.551,-20.020,-48.828,0.000
1760229775.085,-43.457,-39.062,-20.020,-43.945,0.000
1760229775.089,-30.273,-42.480,-22.461,-29.297,0.000
1760229775.093,-32.715,-41.016,-23.926,-33.203,0.000
1760229775.096,-72.754,-37.598,-22.949,-38.086,0.000
1760229775.100,-52.246,-43.945,-28.320,-41.016,0.000
1760229775.104,-36.621,-45.898,-34.668,-42.480,0.000
1760229775.108,-21.484,-40.527,-33.203,-24.902,0.000
1760229775.112,-14.160,-41.504,-27.344,-41.016,0.000
1760229775.116,-12.207,-41.504,-27.344,-55.176,0.000
1760229775.120,-21.973,-38.086,-23.926,-33.691,0.000
1760229775.124,-59.082,-40.039,-21.484,-20.508,0.000
1760229775.128,-52.246,-42.480,-20.508,-20.996,0.000
1760229775.132,-34.180,-43.945,-21.484,-29.297,0.000
1760229775.136,-20.508,-40.527,-23.926,-48.340,0.000
1760229775.139,-41.992,-34.180,-31.250,-47.363,0.000
1760229775.143,-39.062,-32.227,-36.621,-30.273,0.000
1760229775.147,-25.879,-34.180,-31.250,-23.926,0.000
1760229775.151,-49.805,-37.109,-30.762,-43.945,0.000
1760229775.155,-55.176,-38.086,-23.926,-36.621,0.000
1760229775.159,4.395,-43.457,-21.973,-20.020,0.000
1760229775.163,8.301,-41.016,-27.832,-44.922,0.000
1760229775.167,-35.156,-36.621,-35.156,-46.875,0.000
1760229775.171,-39.551,-36.621,-36.133,-33.203,0.000
1760229775.175,-95.703,-34.668,-28.320,-37.109,0.000
1760229775.178,-89.844,-36.133,-28.320,-49.316,0.000
1760229775.182,-46.387,-39.062,-28.809,-38.574,0.000
1760229775.186,-24.414,-37.109,-23.926,-25.391,0.000
1760229775.190,-0.977,-37.598,-26.855,-36.621,0.000
1760229775.194,-23.926,-39.551,-33.203,-39.062,0.000
1760229775.198,-62.988,-31.250,-23.926,-35.645,0.000
1760229775.202,-62.012,-27.344,-23.926,-37.598,0.000
1760229775.206,-49.805,-30.762,-25.391,-42.480,0.000
1760229775.210,3.906,-30.273,-23.438,-43.945,0.000
1760229775.214,41.016,-30.762,-24.414,-41.992,0.000
1760229775.218,-50.293,-32.715,-21.973,-40.527,0.000
1760229775.221,-71.289,-33.691,-22.949,-22.461,0.000
1760229775.225,-41.992,-32.715,-21.484,-32.715,0.000
1760229775.229,-50.781,-33.691,-23.926,-51.758,0.000
1760229775.233,-22.949,-39.551,-25.391,-52.734,0.000
1760229775.237,-2.930,-40.039,-23.438,-39.551,0.000
1760229775.241,-30.762,-41.016,-26.855,-38.574,0.000
1760229775.245,-38.086,-41.504,-30.273,-52.246,0.000
1760229775.249,-40.039,-36.621,-28.320,-40.527,0.000
1760229775.253,-50.293,-35.156,-28.809,-29.785,0.000
1760229775.257,-38.086,-38.574,-30.762,-37.598,0.000
1760229775.260,-39.062,-46.387,-29.785,-44.434,0.000
1760229775.264,-45.898,-48.340,-27.832,-60.547,0.000
1760229775.268,-37.598,-46.387,-24.414,-49.316,0.000
1760229775.272,-20.020,-44.922,-29.297,-27.832,0.000
1760229775.276,-30.762,-41.992,-36.133,-37.109,0.000
1760229775.280,-31.738,-40.039,-32.227,-29.785,0.000
1760229775.284,-53.223,-39.551,-28.320,-27.344,0.000
1760229775.288,-65.430,-45.410,-31.738,-58.594,0.000
1760229775.292,-49.316,-43.945,-28.320,-56.152,0.000
1760229775.296,-38.574,-39.062,-24.902,-33.203,0.000
1760229775.300,-35.156,-36.133,-32.227,-41.504,0.000
1760229775.303,-40.527,-36.621,-35.645,-41.016,0.000
1760229775.307,-33.691,-38.086,-35.645,-43.457,0.000
1760229775.311,-18.555,-34.180,-37.109,-35.156,0.000
1760229775.315,5.859,-35.156,-37.598,-27.832,0.000
1760229775.319,-3.906,-37.109,-35.645,-50.293,0.000
1760229775.323,-20.020,-36.621,-35.156,-57.129,0.000
1760229775.327,-59.082,-40.527,-30.762,-52.734,0.000
1760229775.331,-63.965,-39.062,-27.344,-62.500,0.000
1760229775.335,-37.109,-38.086,-29.297,-45.898,0.000
1760229775.339,-53.711,-38.574,-26.855,-22.461,0.000
1760229775.343,-27.344,-39.551,-26.855,-24.414,0.000
1760229775.346,14.160,-32.227,-28.320,-29.785,0.000
1760229775.350,14.648,-28.320,-29.785,-43.945,0.000
1760229775.354,-28.320,-36.133,-30.762,-41.504,0.000
1760229775.358,-68.848,-33.691,-30.273,-26.855,0.000
1760229775.362,-63.477,-29.297,-30.762,-33.203,0.000
1760229775.366,-30.273,-27.832,-31.250,-56.641,0.000
1760229775.370,-11.719,-24.902,-32.715,-55.176,0.000
1760229775.374,-15.137,-26.855,-32.715,-35.645,0.000
1760229775.378,-20.020,-33.691,-29.785,-23.438,0.000
1760229775.382,-31.250,-35.156,-24.414,-37.109,0.000
1760229775.386,-33.203,-31.738,-23.926,-39.551,0.000
1760229775.389,-45.410,-31.738,-26.855,-17.578,0.000
1760229775.393,-37.109,-34.180,-27.344,-26.367,0.000
1760229775.397,-3.418,-32.715,-22.949,-22.461,0.000
1760229775.401,7.324,-29.785,-26.855,0.977,0.000
1760229775.405,-31.250,-32.715,-28.320,-15.137,0.000
1760229775.409,-35.156,-30.273,-20.996,-38.086,0.000
1760229775.413,-16.113,-23.926,-18.555,-34.668,0.000
1760229775.417,-33.691,-23.926,-22.949,-30.273,0.000
1760229775.421,-40.039,-25.879,-20.996,-36.621,0.000
1760229775.425,8.789,-29.785,-22.461,-41.992,0.000
1760229775.428,-1.953,-34.180,-29.785,-36.621,0.000
1760229775.432,-41.504,-33.691,-23.926,-13.672,0.000
1760229775.436,-26.855,-29.785,-20.508,-1.465,0.000
1760229775.440,-44.922,-30.762,-25.879,-67.383,0.000
1760229775.444,-36.133,-33.203,-27.832,-77.637,0.000
1760229775.448,-18.066,-29.785,-29.785,-52.246,0.000
1760229775.452,-27.832,-28.809,-32.227,-55.664,0.000
1760229775.456,-16.113,-30.762,-35.645,-42.969,0.000
1760229775.460,-49.805,-30.762,-34.668,-44.922,0.000
1760229775.464,-50.293,-32.227,-28.809,-26.367,0.000
1760229775.468,-29.297,-35.645,-28.320,-11.719,0.000
1760229775.471,-45.410,-36.133,-24.902,-28.809,0.000
1760229775.475,-39.551,-31.250,-19.531,-46.387,0.000
1760229775.479,-25.879,-35.645,-21.484,-37.109,0.000
1760229775.483,-18.066,-38.574,-24.414,-29.785,0.000
1760229775.487,-7.324,-38.574,-25.391,-40.039,0.000
1760229775.491,-55.664,-38.086,-28.809,-38.086,0.000
1760229775.495,-63.477,-36.133,-27.832,-35.156,0.000
1760229775.499,-42.480,-37.109,-28.809,-26.855,0.000
1760229775.503,-35.156,-39.551,-30.762,-11.719,0.000
1760229775.507,-34.180,-43.457,-28.809,-35.645,0.000
1760229775.511,-18.555,-48.828,-26.367,-64.453,0.000
1760229775.514,-37.109,-45.410,-22.461,-53.711,0.000
1760229775.518,-28.809,-41.504,-21.973,-45.898,0.000
1760229775.522,-36.133,-37.598,-26.367,-35.156,0.000
1760229775.526,-76.172,-31.250,-31.250,-21.484,0.000
1760229775.530,-57.129,-29.785,-28.320,-34.668,0.000
1760229775.534,-39.062,-32.227,-26.367,-43.945,0.000
1760229775.538,-23.926,-30.273,-27.344,-41.504,0.000
1760229775.542,1.465,-31.738,-28.809,-60.547,0.000
1760229775.546,-14.648,-34.668,-33.203,-62.988,0.000
1760229775.550,-45.410,-37.109,-34.180,-49.316,0.000
1760229775.553,-46.875,-36.621,-34.180,-48.340,0.000
1760229775.557,-58.105,-31.738,-29.297,-46.875,0.000
1760229775.561,-48.828,-32.227,-27.832,-48.828,0.000
1760229775.565,-21.484,-27.344,-32.715,-54.688,0.000
1760229775.569,-36.621,-28.809,-35.156,-34.180,0.000
1760229775.573,-73.730,-38.086,-35.645,-28.809,0.000
1760229775.577,-40.039,-36.133,-31.250,-36.133,0.000
1760229775.581,-8.789,-34.180,-26.855,-45.410,0.000
1760229775.585,-40.039,-42.480,-30.762,-65.918,0.000
1760229775.589,-37.598,-47.363,-33.691,-61.035,0.000
1760229775.593,-23.438,-40.039,-28.809,-61.035,0.000
1760229775.596,-62.988,-41.992,-30.762,-54.199,0.000
1760229775.600,-76.172,-44.434,-34.668,-32.715,0.000
1760229775.604,-46.875,-37.109,-35.645,-47.852,0.000
1760229775.608,-35.645,-38.086,-30.762,-43.945,0.000
1760229775.612,-21.973,-45.410,-32.227,-34.180,0.000
1760229775.616,-9.766,-43.945,-32.227,-40.527,0.000
1760229775.620,-38.574,-41.016,-28.809,-56.152,0.000
1760229775.624,-43.945,-44.922,-33.691,-60.547,0.000
1760229775.628,10.254,-45.410,-36.133,-19.531,0.000
1760229775.632,0.977,-47.363,-34.668,-5.371,0.000
1760229775.635,-64.453,-50.781,-31.738,-39.062,0.000
1760229775.639,-48.828,-51.270,-29.297,-26.855,0.000
1760229775.643,-2.930,-41.016,-24.414,-8.301,0.000
1760229775.647,-32.227,-31.738,-23.438,-38.086,0.000
1760229775.651,-41.992,-32.227,-26.367,-52.246,0.000
1760229775.655,-24.414,-32.715,-24.902,-47.363,0.000
1760229775.659,-36.133,-31.250,-28.809,-52.734,0.000
1760229775.663,-9.277,-32.715,-31.250,-21.973,0.000
1760229775.667,-1.953,-31.738,-26.855,-16.113,0.000
1760229775.671,-47.852,-34.668,-21.973,-56.641,0.000
1760229775.675,-29.297,-36.133,-20.996,-54.199,0.000
1760229775.678,-19.043,-29.785,-24.902,-49.805,0.000
1760229775.682,-79.590,-26.855,-26.367,-39.551,0.000
1760229775.686,-58.105,-28.809,-26.367,-22.949,0.000
1760229775.690,-23.926,-34.180,-22.949,-28.320,0.000
1760229775.694,-17.578,-35.645,-21.484,-39.551,0.000
1760229775.698,-37.109,-34.180,-24.414,-34.668,0.000
1760229775.702,-23.926,-33.691,-23.926,-27.832,0.000
1760229775.706,-26.855,-41.016,-20.996,-24.414,0.000
1760229775.710,-46.875,-44.434,-22.461,-26.367,0.000
1760229775.714,-8.789,-38.574,-26.855,-26.367,0.000
1760229775.718,15.625,-33.691,-28.320,-20.020,0.000
1760229775.721,-18.066,-38.086,-27.832,-36.621,0.000
1760229775.725,-69.336,-43.457,-23.438,-21.484,0.000
1760229775.729,-55.664,-36.133,-24.902,-14.160,0.000
1760229775.733,-28.320,-27.344,-28.320,-39.551,0.000
1760229775.737,-18.066,-31.250,-27.344,-34.668,0.000
1760229775.741,-22.949,-36.133,-26.367,-28.320,0.000
1760229775.745,-27.344,-31.738,-22.461,-16.113,0.000
1760229775.749,-11.230,-29.297,-20.020,-21.973,0.000
1760229775.753,8.789,-28.320,-22.461,-33.203,0.000
1760229775.757,-17.090,-29.297,-23.926,-29.785,0.000
1760229775.761,-34.180,-33.203,-22.949,-35.156,0.000
1760229775.764,-31.250,-32.715,-22.949,-23.926,0.000
1760229775.768,-54.688,-36.621,-23.926,-30.762,0.000
1760229775.772,-46.875,-40.039,-22.461,-30.273,0.000
1760229775.776,-8.789,-37.598,-22.949,-24.902,0.000
1760229775.780,20.996,-32.715,-23.438,-29.297,0.000
1760229775.784,-32.227,-33.203,-23.438,-43.945,0.000
1760229775.788,-78.125,-38.574,-25.391,-38.086,0.000
1760229775.792,-41.016,-39.551,-31.250,-30.762,0.000
1760229775.796,-12.695,-37.598,-31.250,-28.809,0.000
1760229775.800,-24.902,-40.527,-29.297,-36.133,0.000
1760229775.803,-56.641,-48.828,-31.250,-61.035,0.000
1760229775.807,-55.664,-47.852,-39.062,-57.617,0.000
1760229775.811,-19.043,-49.805,-41.992,-54.688,0.000
1760229775.815,21.973,-47.852,-34.668,-35.645,0.000
1760229775.819,-12.207,-38.086,-27.832,-35.156,0.000
1760229775.823,-93.262,-35.645,-28.809,-49.805,0.000
1760229775.827,-81.055,-35.156,-33.691,-45.410,0.000
1760229775.831,-46.875,-34.668,-27.832,-48.340,0.000
1760229775.835,-42.969,-35.645,-27.344,-51.758,0.000
1760229775.839,-29.785,-35.645,-31.250,-35.156,0.000
1760229775.843,-14.648,-36.133,-24.902,-5.859,0.000
1760229775.846,5.859,-36.621,-26.855,-42.969,0.000
1760229775.850,-9.277,-37.109,-25.391,-50.293,0.000
1760229775.854,-26.367,-40.039,-18.066,-23.926,0.000
1760229775.858,-24.414,-36.621,-16.602,-23.926,0.000
1760229775.862,-18.066,-29.297,-20.996,-25.879,0.000
1760229775.866,-15.137,-31.250,-28.320,-52.734,0.000
1760229775.870,-16.602,-33.203,-25.391,-32.715,0.000
1760229775.874,-18.066,-31.738,-27.832,-22.461,0.000
1760229775.878,-4.395,-30.762,-29.297,-51.758,0.000
1760229775.882,-26.855,-25.879,-25.879,-44.434,0.000
1760229775.886,-57.617,-27.344,-26.855,-46.875,0.000
1760229775.889,-46.387,-32.715,-28.320,-47.852,0.000
1760229775.893,-31.738,-35.156,-22.461,-22.949,0.000
1760229775.897,-41.992,-34.180,-15.625,-42.480,0.000
1760229775.901,-23.926,-34.668,-20.996,-42.480,0.000
1760229775.905,2.930,-33.691,-23.926,-30.762,0.000
1760229775.909,3.906,-25.879,-22.949,-46.875,0.000
1760229775.913,-18.066,-27.832,-25.879,-38.574,0.000
1760229775.917,-72.266,-34.668,-25.879,-27.344,0.000
1760229775.921,-74.219,-28.809,-23.438,-37.109,0.000
1760229775.925,-32.227,-26.367,-23.438,-33.203,0.000
1760229775.928,-6.836,-27.344,-27.832,-26.367,0.000
1760229775.932,-21.973,-28.320,-34.668,-46.387,0.000
1760229775.936,-33.691,-28.809,-34.180,-44.434,0.000
1760229775.940,-27.832,-31.738,-32.227,-44.434,0.000
1760229775.944,-30.273,-34.180,-29.785,-37.598,0.000
1760229775.948,-33.691,-36.621,-31.738,-33.691,0.000
1760229775.952,-17.090,-40.039,-37.109,-51.270,0.000
1760229775.956,24.902,-35.645,-34.668,-32.715,0.000
1760229775.960,-18.066,-36.133,-29.297,-17.090,0.000
1760229775.964,-50.781,-40.039,-22.949,-61.035,0.000
1760229775.968,-44.922,-40.039,-26.855,-74.707,0.000
1760229775.971,-42.480,-38.086,-30.762,-50.293,0.000
1760229775.975,-10.254,-32.715,-23.926,-42.480,0.000
1760229775.979,-34.180,-32.227,-23.926,-35.156,0.000
1760229775.983,-19.531,-33.203,-29.785,-36.133,0.000
1760229775.987,19.531,-28.809,-28.320,-28.320,0.000
1760229775.991,-35.645,-33.203,-26.855,-25.391,0.000
1760229775.995,-77.148,-44.434,-36.621,-54.688,0.000
1760229775.999,-49.316,-33.691,-34.180,-61.523,0.000
1760229776.003,-29.297,-28.320,-23.438,-42.969,0.000
1760229776.007,-20.020,-34.668,-22.949,-42.480,0.000
1760229776.010,10.742,-32.715,-24.902,-39.062,0.000
1760229776.014,-18.555,-32.227,-28.320,-20.020,0.000
1760229776.018,7.324,-28.809,-22.949,-18.066,0.000
1760229776.022,32.227,-30.762,-17.090,-33.691,0.000
1760229776.026,-83.008,-36.621,-20.996,-37.598,0.000
1760229776.030,-97.168,-34.668,-22.949,-41.504,0.000
1760229776.034,-44.434,-28.320,-25.879,-31.250,0.000
1760229776.038,-19.043,-34.180,-30.762,-50.293,0.000
1760229776.042,1.953,-40.039,-31.738,-61.523,0.000
1760229776.046,-28.320,-36.133,-33.203,-51.758,0.000
1760229776.050,-52.734,-37.598,-29.785,-50.781,0.000
1760229776.053,-33.203,-34.668,-23.926,-33.691,0.000
1760229776.057,5.859,-27.832,-25.391,-37.598,0.000
1760229776.061,-20.020,-28.320,-25.391,-41.992,0.000
1760229776.065,-53.223,-38.574,-27.344,-46.875,0.000
1760229776.069,-41.992,-37.598,-29.785,-55.176,0.000
1760229776.073,-26.855,-25.391,-27.832,-37.598,0.000
1760229776.077,-2.930,-24.902,-30.762,-22.461,0.000
1760229776.081,-30.762,-26.855,-27.832,-43.457,0.000
1760229776.085,-51.270,-30.762,-24.902,-37.109,0.000
1760229776.089,-41.992,-31.250,-24.902,-36.133,0.000
1760229776.093,-19.531,-32.715,-21.973,-61.035,0.000
1760229776.096,-30.762,-37.109,-23.438,-53.223,0.000
1760229776.100,-7.812,-37.598,-25.391,-48.828,0.000
1760229776.104,7.812,-37.598,-27.832,-41.992,0.000
1760229776.108,-81.055,-39.551,-26.855,-37.598,0.000
1760229776.112,-58.105,-41.992,-22.461,-44.922,0.000
1760229776.116,-31.738,-35.156,-21.973,-42.969,0.000
1760229776.120,-37.598,-34.668,-24.414,-40.527,0.000
1760229776.124,-6.348,-38.086,-28.320,-43.945,0.000
1760229776.128,-36.621,-34.668,-27.832,-36.621,0.000
1760229776.132,-56.641,-34.668,-28.809,-40.039,0.000
1760229776.135,-42.969,-38.086,-26.367,-37.598,0.000
1760229776.139,-22.461,-35.645,-25.879,-25.391,0.000
1760229776.143,-49.316,-30.762,-29.297,-41.016,0.000
1760229776.147,-59.570,-37.598,-29.297,-50.293,0.000
1760229776.151,-46.875,-40.039,-27.344,-36.133,0.000
1760229776.155,-42.480,-36.621,-26.855,-42.480,0.000
1760229776.159,-18.555,-35.156,-25.879,-22.949,0.000
1760229776.163,4.883,-32.227,-17.578,-21.973,0.000
1760229776.167,-20.508,-36.133,-20.508,-56.152,0.000
1760229776.171,-51.270,-38.086,-24.414,-29.785,0.000
1760229776.175,-26.367,-34.668,-24.414,-36.621,0.000
1760229776.178,-13.672,-35.645,-27.832,-47.363,0.000
1760229776.182,-31.250,-37.598,-28.320,-49.316,0.000
1760229776.186,31.738,-39.551,-25.391,-47.852,0.000
1760229776.190,-32.227,-41.016,-22.949,-33.691,0.000
1760229776.194,-109.375,-41.016,-25.879,-48.340,0.000
1760229776.198,-71.289,-40.039,-28.809,-41.016,0.000
1760229776.202,-82.031,-34.668,-23.926,-35.645,0.000
1760229776.206,-64.453,-30.273,-20.508,-55.664,0.000
1760229776.210,-28.320,-29.297,-20.020,-32.715,0.000
1760229776.214,-33.691,-27.832,-22.949,-45.898,0.000
1760229776.218,-36.621,-27.344,-29.785,-65.430,0.000
1760229776.221,-5.371,-30.762,-31.250,-35.156,0.000
1760229776.225,0.977,-33.203,-28.809,-48.340,0.000
1760229776.229,-41.992,-31.738,-30.762,-53.711,0.000
1760229776.233,-74.219,-31.738,-30.273,-59.082,0.000
1760229776.237,-46.875,-35.156,-30.762,-55.176,0.000
1760229776.241,-44.922,-39.551,-29.785,-21.973,0.000
1760229776.245,-20.996,-37.109,-22.949,-38.086,0.000
1760229776.249,-16.113,-25.879,-18.555,-60.547,0.000
1760229776.253,-48.340,-23.926,-13.184,-36.133,0.000
1760229776.257,-42.480,-28.320,-17.578,-23.438,0.000
1760229776.261,-62.988,-28.809,-25.879,-50.293,0.000
1760229776.264,-42.969,-28.320,-30.762,-60.059,0.000
1760229776.268,-39.062,-30.762,-32.715,-61.035,0.000
1760229776.272,-40.039,-40.039,-34.180,-57.617,0.000
1760229776.276,-37.598,-42.480,-32.227,-33.203,0.000
1760229776.280,-73.730,-37.598,-30.762,-40.039,0.000
1760229776.284,-62.500,-27.344,-32.715,-68.359,0.000
1760229776.288,-34.180,-23.438,-28.809,-59.570,0.000
1760229776.292,-13.184,-28.809,-25.879,-49.316,0.000
1760229776.296,-32.715,-27.344,-27.832,-47.363,0.000
1760229776.300,-54.688,-28.320,-29.297,-50.781,0.000
1760229776.303,-9.277,-33.203,-24.414,-45.410,0.000
1760229776.307,5.859,-33.691,-20.020,-42.969,0.000
1760229776.311,-38.086,-30.762,-22.949,-23.926,0.000
1760229776.315,-65.430,-29.297,-26.367,-21.973,0.000
1760229776.319,-30.762,-30.273,-29.785,-44.434,0.000
1760229776.323,6.348,-30.762,-32.227,-49.316,0.000
1760229776.327,-36.133,-29.785,-24.902,-58.594,0.000
1760229776.331,-58.594,-30.273,-19.531,-51.270,0.000
1760229776.335,-23.438,-33.691,-22.461,-41.992,0.000
1760229776.339,-13.184,-36.133,-22.949,-35.156,0.000
1760229776.343,-16.602,-37.109,-19.043,-20.508,0.000
1760229776.346,-18.066,-34.180,-16.113,-38.574,0.000
1760229776.350,-50.781,-31.738,-18.066,-46.387,0.000
1760229776.354,-46.875,-44.434,-29.785,-41.504,0.000
1760229776.358,-29.297,-43.945,-39.062,-46.875,0.000
1760229776.362,-32.227,-25.391,-35.645,-19.531,0.000
1760229776.366,-29.297,-20.508,-36.133,-31.250,0.000
1760229776.370,-27.344,-24.902,-28.809,-39.551,0.000
1760229776.374,-24.414,-23.926,-22.461,-34.180,0.000
1760229776.378,-12.695,-26.855,-25.391,-53.711,0.000
1760229776.382,-30.273,-42.969,-36.133,-77.148,0.000
1760229776.385,-24.414,-44.434,-37.109,-80.078,0.000
1760229776.389,-2.930,-28.809,-21.484,-43.945,0.000
1760229776.393,-13.672,-18.066,-12.695,-14.648,0.000
1760229776.397,-45.898,-20.020,-18.066,-26.855,0.000
1760229776.401,-51.270,-28.320,-25.879,-61.035,0.000
1760229776.405,8.789,-32.227,-28.809,-60.547,0.000
1760229776.409,16.602,-28.809,-30.762,-41.504,0.000
1760229776.413,-56.152,-26.855,-27.344,-31.738,0.000
1760229776.417,-58.105,-28.809,-27.344,-24.414,0.000
1760229776.421,-7.812,-34.668,-26.367,-30.762,0.000
1760229776.424,-0.977,-31.738,-18.555,-19.043,0.000
1760229776.428,-41.504,-29.785,-23.438,-21.484,0.000
1760229776.432,-13.672,-29.297,-29.297,-66.406,0.000
1760229776.436,4.883,-24.414,-26.367,-54.688,0.000
1760229776.440,-33.203,-27.344,-25.879,-37.598,0.000
1760229776.444,-29.785,-27.832,-28.320,-36.133,0.000
1760229776.448,-48.340,-29.785,-35.156,-46.875,0.000
1760229776.452,-47.852,-34.180,-35.156,-54.688,0.000
1760229776.456,-14.160,-33.203,-32.715,-38.574,0.000
1760229776.460,0.000,-35.645,-32.715,-38.086,0.000
1760229776.464,-6.836,-36.133,-28.809,-41.504,0.000
1760229776.467,-25.879,-30.762,-22.461,-36.621,0.000
1760229776.471,-23.926,-28.809,-27.344,-25.879,0.000
1760229776.475,-9.277,-34.668,-32.715,-37.598,0.000
1760229776.479,-35.156,-32.715,-25.391,-69.824,0.000
1760229776.483,-28.809,-28.809,-20.508,-64.941,0.000
1760229776.487,-10.742,-27.344,-26.367,-49.316,0.000
1760229776.491,-46.875,-25.391,-28.809,-45.410,0.000
1760229776.495,-54.688,-24.902,-29.785,-35.156,0.000
1760229776.499,-37.598,-30.273,-34.180,-46.387,0.000
1760229776.503,4.395,-28.809,-32.715,-69.336,0.000
1760229776.507,21.484,-24.902,-31.250,-45.410,0.000
1760229776.510,-16.113,-25.879,-32.715,-41.016,0.000
1760229776.514,-16.602,-26.855,-29.297,-53.711,0.000
1760229776.518,-44.434,-27.832,-29.297,-39.062,0.000
1760229776.522,-67.383,-30.762,-29.785,-34.180,0.000
1760229776.526,-52.246,-31.738,-31.250,-45.410,0.000
1760229776.530,-52.734,-23.438,-31.738,-21.973,0.000
1760229776.534,-29.785,-18.066,-25.879,-27.344,0.000
1760229776.538,-10.742,-23.926,-20.508,-65.430,0.000
1760229776.542,-6.348,-29.297,-17.090,-41.504,0.000
1760229776.546,16.602,-33.203,-29.297,-27.832,0.000
1760229776.550,2.441,-37.598,-39.062,-33.691,0.000
1760229776.553,-26.855,-36.621,-34.180,-42.480,0.000
1760229776.557,-16.602,-36.133,-32.227,-43.457,0.000
1760229776.561,-17.578,-35.156,-31.250,-23.438,0.000
1760229776.565,-12.207,-36.621,-31.738,-21.484,0.000
1760229776.569,-13.184,-37.109,-37.598,-42.480,0.000
1760229776.573,-43.945,-32.715,-32.715,-34.180,0.000
1760229776.577,-28.320,-32.715,-33.203,-19.531,0.000
1760229776.581,-23.926,-38.086,-36.621,-29.785,0.000
1760229776.585,7.812,-35.645,-30.273,-22.949,0.000
1760229776.589,-30.762,-31.250,-32.715,-23.438,0.000
1760229776.592,-63.965,-37.109,-28.320,-23.438,0.000
1760229776.596,-13.672,-35.645,-23.926,-13.184,0.000
1760229776.600,-46.387,-29.785,-27.832,-40.039,0.000
1760229776.604,-31.738,-32.715,-27.832,-37.109,0.000
1760229776.608,-24.414,-35.156,-26.855,-18.555,0.000
1760229776.612,-37.598,-32.715,-30.273,-38.574,0.000
1760229776.616,33.203,-25.391,-30.273,-42.969,0.000
1760229776.620,-7.324,-24.414,-22.461,-20.508,0.000
1760229776.624,-74.707,-23.438,-16.113,-14.160,0.000
1760229776.628,-45.410,-25.879,-17.578,-21.484,0.000
1760229776.632,-25.391,-20.020,-20.508,-6.836,0.000
1760229776.635,-24.902,-16.113,-17.090,-29.297,0.000
1760229776.639,-39.062,-25.879,-18.066,-51.758,0.000
1760229776.643,-40.527,-33.203,-23.926,-36.621,0.000
1760229776.647,-4.395,-30.273,-24.414,-32.715,0.000
1760229776.651,56.641,-20.508,-22.949,-15.137,0.000
1760229776.655,4.395,-27.832,-20.996,-19.531,0.000
1760229776.659,-49.805,-31.250,-20.508,-14.160,0.000
1760229776.663,-32.715,-28.809,-21.973,-25.879,0.000
1760229776.667,-40.527,-28.320,-20.020,-41.016,0.000
1760229776.671,-43.457,-23.438,-14.160,-33.203,0.000
1760229776.675,-28.809,-24.902,-18.066,-38.574,0.000
1760229776.678,38.574,-21.484,-27.344,-28.809,0.000
1760229776.682,-17.578,-21.973,-19.531,-31.738,0.000
1760229776.686,-74.707,-26.367,-19.531,-24.902,0.000
1760229776.690,-45.898,-28.809,-20.020,-8.789,0.000
1760229776.694,-64.941,-32.227,-19.531,-31.738,0.000
1760229776.698,-23.438,-24.902,-19.531,-35.645,0.000
1760229776.702,-2.441,-20.020,-21.973,-15.625,0.000
1760229776.706,-26.367,-20.508,-23.926,-24.414,0.000
1760229776.710,-41.992,-19.043,-22.949,-3.906,0.000
1760229776.714,-6.348,-21.484,-24.902,1.953,0.000
1760229776.717,10.254,-28.320,-22.949,-42.969,0.000
1760229776.721,-15.137,-31.250,-20.508,-28.320,0.000
1760229776.725,-0.488,-22.949,-19.531,-13.184,0.000
1760229776.729,-47.363,-29.785,-15.137,-43.945,0.000
1760229776.733,-58.594,-40.527,-10.742,-41.992,0.000
1760229776.737,-5.859,-36.133,-15.137,-14.160,0.000
1760229776.741,-22.461,-37.109,-12.695,9.766,0.000
1760229776.745,-13.184,-32.715,-17.578,15.625,0.000
1760229776.749,-29.785,-28.320,-26.367,-9.766,0.000
1760229776.753,-50.293,-26.855,-22.949,6.348,0.000
1760229776.756,4.395,-30.762,-27.832,-6.836,0.000
1760229776.760,-38.574,-34.180,-30.273,-57.617,0.000
1760229776.764,-92.285,-29.785,-29.785,-75.195,0.000
1760229776.768,-35.645,-35.645,-27.832,-50.781,0.000
1760229776.772,-24.414,-37.598,-22.949,-7.812,0.000
1760229776.776,-51.270,-34.180,-25.391,-21.973,0.000
1760229776.780,-13.672,-36.133,-24.414,-31.738,0.000
1760229776.784,-74.219,-40.527,-28.809,-27.344,0.000
1760229776.788,-85.938,-38.086,-31.738,-48.828,0.000
1760229776.792,-26.367,-33.691,-28.320,-45.898,0.000
1760229776.796,-27.344,-42.969,-35.156,-56.152,0.000
1760229776.799,-35.156,-42.969,-37.598,-79.590,0.000
1760229776.803,-57.617,-37.598,-36.621,-72.754,0.000
1760229776.807,-87.402,-38.574,-41.504,-76.172,0.000
1760229776.811,-95.215,-40.039,-43.457,-68.848,0.000
1760229776.815,-75.684,-41.992,-27.832,-58.594,0.000
1760229776.819,-71.289,-39.062,-26.367,-50.293,0.000
1760229776.823,-39.551,-37.109,-34.180,-61.035,0.000
1760229776.827,-52.734,-37.109,-32.227,-62.012,0.000
1760229776.831,-39.062,-41.992,-37.109,-56.152,0.000
1760229776.835,-12.207,-38.086,-36.621,-53.223,0.000
1760229776.839,-64.941,-31.250,-35.156,-28.320,0.000
1760229776.842,-56.641,-38.574,-37.109,-37.598,0.000
1760229776.846,-35.645,-41.992,-31.738,-49.805,0.000
1760229776.850,-64.453,-37.598,-28.809,-62.988,0.000
1760229776.854,-34.180,-42.969,-30.762,-70.312,0.000
1760229776.858,-15.137,-39.551,-31.250,-33.203,0.000
1760229776.862,-51.758,-32.715,-38.086,-43.457,0.000
1760229776.866,-41.016,-32.227,-40.527,-61.523,0.000
1760229776.870,-35.156,-33.203,-33.203,-45.898,0.000
1760229776.874,-49.316,-37.598,-33.691,-57.129,0.000
1760229776.878,-79.590,-35.645,-33.691,-58.594,0.000
1760229776.882,-71.289,-31.250,-24.414,-61.035,0.000
1760229776.885,-56.641,-33.203,-20.508,-59.082,0.000
1760229776.889,-28.320,-40.527,-20.508,-29.297,0.000
1760229776.893,-17.578,-39.551,-20.508,-29.297,0.000
1760229776.897,-43.457,-39.551,-21.484,-50.293,0.000
1760229776.901,-30.762,-41.992,-19.531,-46.875,0.000
1760229776.905,-41.992,-39.062,-13.184,-40.527,0.000
1760229776.909,-72.754,-35.645,-14.160,-29.297,0.000
1760229776.913,-29.297,-38.086,-14.648,-30.762,0.000
1760229776.917,-15.625,-38.086,-14.648,-27.832,0.000
1760229776.921,-57.617,-34.180,-18.066,-22.949,0.000
1760229776.924,-44.434,-39.062,-25.879,-49.805,0.000
1760229776.928,-29.785,-39.062,-28.809,-49.316,0.000
1760229776.932,-21.973,-31.250,-20.996,-22.949,0.000
1760229776.936,-25.879,-33.691,-22.949,-29.785,0.000
1760229776.940,6.348,-30.273,-21.973,-51.758,0.000
1760229776.944,30.762,-23.926,-14.648,-28.320,0.000
1760229776.948,-61.523,-30.762,-17.578,-32.227,0.000
1760229776.952,-83.984,-25.391,-30.762,-58.105,0.000
1760229776.956,-42.480,-22.949,-30.762,-29.297,0.000
1760229776.960,-43.457,-26.855,-17.578,-37.598,0.000
1760229776.964,11.230,-31.250,-11.719,-65.918,0.000
1760229776.967,-16.113,-42.480,-20.020,-75.684,0.000
1760229776.971,-83.496,-44.922,-33.691,-64.941,0.000
1760229776.975,-23.438,-34.668,-30.273,-45.410,0.000
1760229776.979,-32.227,-27.344,-25.879,-49.316,0.000
1760229776.983,-40.039,-24.902,-17.578,-30.273,0.000
1760229776.987,-43.457,-29.785,-10.742,-39.551,0.000
1760229776.991,-50.293,-39.551,-48.828,-69.824,0.000
1760229776.995,-0.488,-41.016,-63.477,-47.852,0.000
1760229776.999,5.859,-32.227,-47.852,-50.293,0.000
1760229777.003,-32.715,-35.645,-46.875,-74.219,0.000
1760229777.007,-60.059,-45.898,-42.969,-67.871,0.000
1760229777.010,-11.719,-42.480,-40.527,-53.711,0.000
1760229777.014,18.555,-19.531,-23.926,-25.879,0.000
1760229777.018,-31.738,-15.137,-22.949,-38.574,0.000
1760229777.022,-18.555,-23.926,-43.457,-48.340,0.000
1760229777.026,-25.879,-32.715,-43.945,-29.785,0.000
1760229777.030,-40.039,-27.344,-27.344,-13.184,0.000
1760229777.034,-34.668,-26.367,-38.574,-40.527,0.000
1760229777.038,-24.414,-31.250,-48.828,-77.637,0.000
1760229777.042,-10.742,-33.203,-45.410,-50.781,0.000
1760229777.046,-19.531,-34.180,-31.250,-40.039,0.000
1760229777.049,-13.672,-27.344,-19.043,-18.555,0.000
1760229777.053,-38.086,-21.484,-20.508,-3.906,0.000
1760229777.057,-32.227,-23.438,-18.555,-31.738,0.000
1760229777.061,-21.484,-22.949,-11.230,-52.734,0.000
1760229777.065,-22.461,-24.414,-16.113,-39.062,0.000
1760229777.069,-3.906,-34.668,-23.926,-25.391,0.000
1760229777.073,18.555,-29.297,-28.809,-49.805,0.000
1760229777.077,-13.184,-17.578,-21.973,-53.223,0.000
1760229777.081,-53.711,-22.949,-14.160,-12.207,0.000
1760229777.085,-33.203,-24.902,-14.160,-19.043,0.000
1760229777.088,-17.578,-23.438,-14.648,-43.457,0.000
1760229777.092,-21.484,-22.461,-19.043,-16.113,0.000
1760229777.096,4.883,-18.555,-27.832,-29.785,0.000
1760229777.100,33.691,-20.508,-29.785,-49.316,0.000
1760229777.104,-13.184,-29.297,-22.461,-37.598,0.000
1760229777.108,-66.895,-30.762,-22.461,-60.059,0.000
1760229777.112,-47.852,-22.461,-24.414,-49.316,0.000
1760229777.116,-32.227,-33.203,-12.207,-35.156,0.000
1760229777.120,-47.852,-35.645,-7.812,-43.457,0.000
1760229777.124,-59.082,-24.902,-23.438,-34.668,0.000
1760229777.128,-47.852,-29.785,-22.949,-48.340,0.000
1760229777.131,-43.457,-33.691,-22.949,-31.738,0.000
1760229777.135,-42.969,-35.156,-30.273,-29.785,0.000
1760229777.139,-23.926,-35.156,-19.531,-66.895,0.000
1760229777.143,-41.504,-39.062,-13.672,-57.129,0.000
1760229777.147,-35.645,-43.945,-18.555,-32.715,0.000
1760229777.151,-32.715,-34.180,-17.090,-27.832,0.000
1760229777.155,-56.641,-25.391,-13.672,-45.410,0.000
1760229777.159,-61.523,-31.738,-24.414,-67.871,0.000
1760229777.163,-47.363,-39.551,-28.809,-72.266,0.000
1760229777.167,-15.625,-41.992,-24.414,-76.172,0.000
1760229777.171,-55.664,-42.969,-19.531,-97.656,0.000
1760229777.174,-77.637,-41.016,-18.555,-79.590,0.000
1760229777.178,-61.523,-42.480,-20.996,-60.547,0.000
1760229777.182,-33.691,-39.062,-31.738,-66.895,0.000
1760229777.186,-17.578,-36.133,-35.156,-96.680,0.000
1760229777.190,-53.223,-41.016,-27.344,-81.543,0.000
1760229777.194,-73.242,-37.598,-24.902,-46.387,0.000
1760229777.198,-42.480,-33.203,-25.879,-72.754,0.000
1760229777.202,-41.504,-33.691,-19.531,-57.617,0.000
1760229777.206,-56.641,-34.180,-19.043,-28.320,0.000
1760229777.210,-12.207,-34.668,-21.484,-36.133,0.000
1760229777.214,6.836,-43.457,-16.113,-35.645,0.000
1760229777.217,-35.156,-44.922,-17.090,-48.828,0.000
1760229777.221,-73.242,-39.551,-23.926,-34.668,0.000
1760229777.225,-57.129,-38.574,-19.043,-31.738,0.000
1760229777.229,-35.156,-37.598,-21.484,-46.387,0.000
1760229777.233,-20.508,-41.504,-26.855,-55.176,0.000
1760229777.237,-32.227,-37.598,-19.531,-71.289,0.000
1760229777.241,-45.898,-39.062,-12.207,-64.453,0.000
1760229777.245,-34.668,-42.480,-16.602,-57.617,0.000
1760229777.249,-49.805,-41.016,-23.926,-62.012,0.000
1760229777.253,-47.363,-38.086,-21.484,-47.363,0.000
1760229777.256,-47.363,-36.133,-26.855,-48.828,0.000
1760229777.260,-42.969,-35.156,-29.785,-63.965,0.000
1760229777.264,-15.625,-30.762,-24.902,-36.133,0.000
1760229777.268,-8.301,-29.297,-21.973,-15.625,0.000
1760229777.272,-21.484,-28.809,-20.996,-17.090,0.000
1760229777.276,-20.508,-29.297,-32.227,-26.855,0.000
1760229777.280,-13.672,-32.715,-32.715,-21.973,0.000
1760229777.284,-23.438,-33.691,-18.066,-27.832,0.000
1760229777.288,-40.527,-39.551,-21.973,-62.988,0.000
1760229777.292,-30.762,-42.480,-29.785,-61.035,0.000
1760229777.296,-22.461,-43.945,-27.344,-27.832,0.000
1760229777.299,16.113,-47.852,-21.973,-19.043,0.000
1760229777.303,-1.953,-48.340,-30.762,-32.227,0.000
1760229777.307,-52.246,-48.340,-40.527,-33.691,0.000
1760229777.311,-44.922,-38.086,-33.203,-5.371,0.000
1760229777.315,-20.996,-30.762,-27.832,-17.578,0.000
1760229777.319,-3.906,-34.668,-30.273,-53.711,0.000
1760229777.323,-20.020,-34.180,-26.367,-47.852,0.000
1760229777.327,-4.395,-33.691,-21.973,-21.484,0.000
1760229777.331,8.789,-36.133,-23.926,-30.762,0.000
1760229777.335,-33.203,-44.434,-30.273,-48.340,0.000
1760229777.339,-56.152,-39.062,-28.809,-28.809,0.000
1760229777.342,-20.020,-26.367,-22.461,-22.461,0.000
1760229777.346,-6.348,-27.344,-28.320,-45.898,0.000
1760229777.350,-60.547,-31.250,-31.250,-33.691,0.000
1760229777.354,-64.941,-35.156,-31.250,-9.277,0.000
1760229777.358,-31.738,-43.457,-30.273,-15.625,0.000
1760229777.362,-19.043,-51.758,-32.715,-18.066,0.000
1760229777.366,-15.625,-41.504,-37.109,-23.438,0.000
1760229777.370,-9.277,-36.621,-31.250,-27.344,0.000
1760229777.374,-27.832,-41.504,-23.438,-12.695,0.000
1760229777.378,-49.805,-45.410,-27.344,-41.992,0.000
1760229777.382,-52.246,-45.410,-32.715,-61.035,0.000
1760229777.385,-53.711,-40.039,-26.855,-51.758,0.000
1760229777.389,-35.156,-37.109,-22.949,-33.691,0.000
1760229777.393,-27.344,-27.344,-32.715,-21.484,0.000
1760229777.397,-6.348,-32.227,-28.320,-32.227,0.000
1760229777.401,-7.324,-42.969,-21.973,-34.668,0.000
1760229777.405,-30.762,-34.180,-25.391,-20.996,0.000
1760229777.409,-58.594,-33.691,-28.809,-28.809,0.000
1760229777.413,-65.918,-38.086,-32.227,-41.992,0.000
1760229777.417,-36.133,-33.203,-34.668,-41.016,0.000
1760229777.421,-41.992,-31.738,-30.762,-44.922,0.000
1760229777.424,-39.062,-30.762,-23.438,-52.734,0.000
1760229777.428,-35.645,-33.691,-27.832,-43.457,0.000
1760229777.432,-22.461,-36.133,-36.133,-32.715,0.000
1760229777.436,3.906,-32.227,-31.738,-63.965,0.000
1760229777.440,-19.531,-29.785,-19.043,-57.129,0.000
1760229777.444,-43.457,-25.391,-16.113,-32.227,0.000
1760229777.448,-49.805,-25.391,-27.832,-48.340,0.000
1760229777.452,-38.086,-29.297,-25.879,-53.711,0.000
1760229777.456,-17.578,-29.297,-17.578,-31.738,0.000
1760229777.460,-32.715,-37.598,-20.020,-28.809,0.000
1760229777.463,-44.922,-44.434,-23.438,-39.551,0.000
1760229777.467,-25.391,-35.156,-25.879,-39.551,0.000
1760229777.471,-23.438,-26.367,-23.926,-52.246,0.000
1760229777.475,-45.410,-29.297,-24.414,-52.734,0.000
1760229777.479,-42.969,-36.621,-21.973,-41.504,0.000
1760229777.483,-42.969,-38.086,-16.602,-42.480,0.000
1760229777.487,-44.922,-38.574,-14.160,-40.527,0.000
1760229777.491,-25.879,-31.738,-13.184,-32.227,0.000
1760229777.495,-12.207,-23.438,-20.996,-24.414,0.000
1760229777.499,-6.348,-33.203,-24.414,-51.270,0.000
1760229777.503,-28.320,-44.434,-21.484,-62.988,0.000
1760229777.506,-29.297,-37.109,-22.949,-51.270,0.000
1760229777.510,-25.391,-37.598,-17.578,-35.156,0.000
1760229777.514,-36.133,-37.109,-13.184,-12.207,0.000
1760229777.518,-33.203,-23.438,-24.902,-44.922,0.000
1760229777.522,10.254,-22.461,-21.973,-56.641,0.000
1760229777.526,8.789,-28.809,-19.043,-42.969,0.000
1760229777.530,-39.551,-29.785,-25.879,-38.574,0.000
1760229777.534,-60.547,-25.879,-28.809,-32.715,0.000
1760229777.538,-36.621,-29.785,-26.367,-36.621,0.000
1760229777.542,-20.996,-29.785,-18.555,-16.113,0.000
1760229777.545,-8.789,-26.367,-21.484,-20.508,0.000
1760229777.549,-11.230,-31.250,-25.879,-43.945,0.000
1760229777.553,-59.570,-34.180,-24.902,-34.180,0.000
1760229777.557,-55.664,-32.227,-25.879,-36.133,0.000
1760229777.561,-32.715,-28.320,-20.508,-25.391,0.000
1760229777.565,-10.742,-28.809,-13.184,-1.465,0.000
1760229777.569,3.418,-26.855,-17.578,-14.160,0.000
1760229777.573,-17.578,-30.273,-29.297,-50.781,0.000
1760229777.577,-35.156,-35.156,-33.203,-59.570,0.000
1760229777.581,-44.922,-33.691,-29.297,-55.176,0.000
1760229777.585,-51.270,-34.668,-22.949,-49.316,0.000
1760229777.588,-24.902,-31.738,-26.367,-13.184,0.000
1760229777.592,-16.113,-28.320,-27.832,-4.883,0.000
1760229777.596,-15.137,-26.855,-28.809,-45.410,0.000
1760229777.600,-4.883,-25.391,-26.855,-38.574,0.000
1760229777.604,-12.695,-20.996,-21.973,-28.320,0.000
1760229777.608,-22.461,-26.855,-23.438,-33.691,0.000
1760229777.612,-32.715,-32.227,-24.902,-35.156,0.000
1760229777.616,-22.949,-26.855,-19.531,-22.461,0.000
1760229777.620,-27.344,-29.297,-17.090,-18.555,0.000
1760229777.624,-49.316,-34.668,-27.344,-39.551,0.000
1760229777.628,-36.621,-30.273,-28.809,-50.293,0.000
1760229777.631,-17.090,-27.832,-25.391,-50.781,0.000
1760229777.635,16.113,-29.785,-27.344,-50.781,0.000
1760229777.639,-7.324,-33.203,-20.996,-36.133,0.000
1760229777.643,-38.086,-36.621,-21.973,-41.504,0.000
1760229777.647,-43.457,-38.086,-33.203,-53.223,0.000
1760229777.651,-53.711,-41.016,-30.762,-51.270,0.000
1760229777.655,-57.129,-35.156,-22.461,-54.688,0.000
1760229777.659,-64.941,-28.320,-22.461,-55.664,0.000
1760229777.663,-49.316,-28.809,-25.879,-63.965,0.000
1760229777.667,-50.293,-24.414,-29.785,-61.035,0.000
1760229777.671,-13.672,-30.762,-40.039,-54.199,0.000
1760229777.674,42.480,-38.574,-40.039,-35.645,0.000
1760229777.678,-37.109,-41.992,-30.762,-26.367,0.000
1760229777.682,-127.441,-37.109,-36.133,-74.219,0.000
1760229777.686,-92.285,-26.367,-38.086,-73.730,0.000
1760229777.690,-70.312,-31.250,-32.227,-30.273,0.000
1760229777.694,-55.176,-29.785,-31.250,-44.434,0.000
1760229777.698,-29.785,-20.996,-31.250,-53.711,0.000
1760229777.702,-11.719,-23.438,-36.133,-46.387,0.000
1760229777.706,-36.621,-27.344,-32.715,-47.852,0.000
1760229777.710,-41.504,-31.738,-32.715,-53.223,0.000
1760229777.713,-40.039,-28.809,-39.062,-45.898,0.000
1760229777.717,-32.227,-25.391,-34.668,-30.273,0.000
1760229777.721,-19.043,-28.809,-31.738,-50.781,0.000
1760229777.725,-53.223,-30.273,-33.691,-57.617,0.000
1760229777.729,-32.227,-30.762,-34.668,-32.227,0.000
1760229777.733,-40.039,-28.320,-33.691,-33.203,0.000
1760229777.737,-34.668,-29.785,-32.227,-54.199,0.000
1760229777.741,-25.391,-31.738,-31.250,-59.082,0.000
1760229777.745,-32.715,-28.809,-29.785,-35.156,0.000
1760229777.749,-23.438,-26.855,-28.809,-24.902,0.000
1760229777.753,-40.527,-32.715,-28.320,-33.203,0.000
1760229777.756,-33.691,-26.855,-29.785,-10.742,0.000
1760229777.760,-34.180,-22.949,-34.668,-22.949,0.000
1760229777.764,-56.641,-34.180,-34.180,-55.176,0.000
1760229777.768,-17.578,-33.203,-25.391,-53.711,0.000
1760229777.772,3.906,-31.738,-27.832,-55.176,0.000
1760229777.776,-20.508,-29.297,-25.391,-35.156,0.000
1760229777.780,-7.812,-20.996,-16.602,-27.832,0.000
1760229777.784,-23.438,-35.645,-20.508,-40.527,0.000
1760229777.788,-62.500,-48.340,-24.414,-41.016,0.000
1760229777.792,-42.480,-41.504,-29.297,-27.344,0.000
1760229777.796,-24.414,-38.086,-31.250,-30.762,0.000
1760229777.799,2.441,-36.621,-29.297,-54.199,0.000
1760229777.803,-24.414,-41.504,-29.785,-60.547,0.000
1760229777.807,-20.020,-47.363,-30.273,-40.039,0.000
1760229777.811,-20.996,-35.156,-29.297,-23.926,0.000
1760229777.815,-30.762,-23.926,-25.391,-24.902,0.000
1760229777.819,16.602,-21.484,-18.555,-7.812,0.000
1760229777.823,-6.348,-21.484,-24.902,1.465,0.000
1760229777.827,-24.414,-21.484,-38.574,-25.879,0.000
1760229777.831,-16.113,-26.855,-36.133,-33.203,0.000
1760229777.835,-23.438,-35.156,-29.297,-15.625,0.000
1760229777.838,-51.270,-34.668,-26.367,-20.020,0.000
1760229777.842,-38.086,-30.762,-20.508,-36.621,0.000
1760229777.846,5.371,-24.902,-19.043,-31.250,0.000
1760229777.850,-12.207,-29.785,-25.879,-29.297,0.000
1760229777.854,-29.785,-35.645,-28.320,-44.922,0.000
1760229777.858,-18.066,-25.879,-21.973,-40.039,0.000
1760229777.862,-3.418,-28.809,-9.277,-2.930,0.000
1760229777.866,-22.949,-41.992,-16.602,-10.742,0.000
1760229777.870,-32.227,-35.156,-26.855,-51.270,0.000
1760229777.874,-21.973,-34.668,-29.785,-64.453,0.000
1760229777.877,-43.945,-41.504,-32.715,-71.777,0.000
1760229777.881,-44.922,-31.250,-25.879,-47.363,0.000
1760229777.885,-35.156,-33.691,-17.578,-43.945,0.000
1760229777.889,-47.852,-45.898,-19.043,-67.871,0.000
1760229777.893,-26.855,-35.645,-15.625,-43.945,0.000
1760229777.897,-15.137,-32.227,-8.789,-32.715,0.000
1760229777.901,-28.320,-35.645,-20.020,-37.598,0.000
1760229777.905,-50.781,-34.180,-28.320,-31.250,0.000
1760229777.909,-48.340,-34.180,-21.973,-15.137,0.000
1760229777.913,-27.344,-30.273,-22.949,-33.203,0.000
1760229777.917,-36.621,-30.273,-21.973,-57.617,0.000
1760229777.920,-36.621,-35.645,-18.555,-29.297,0.000
1760229777.924,-42.969,-41.992,-21.973,-33.203,0.000
1760229777.928,-21.973,-34.668,-25.391,-38.086,0.000
1760229777.932,7.324,-24.902,-22.461,-28.809,0.000
1760229777.936,-30.273,-24.902,-17.090,-41.016,0.000
1760229777.940,-63.965,-27.832,-13.184,-29.785,0.000
1760229777.944,-50.293,-31.738,-11.230,-34.180,0.000
1760229777.948,-34.180,-29.297,-13.672,-54.199,0.000
1760229777.952,-34.180,-22.949,-20.508,-52.734,0.000
1760229777.956,-24.414,-26.855,-19.531,-42.969,0.000
1760229777.960,-39.062,-33.691,-18.066,-28.320,0.000
1760229777.963,-51.758,-28.809,-15.137,-25.879,0.000
1760229777.967,-24.414,-30.273,-17.090,-38.086,0.000
1760229777.971,-32.227,-41.504,-23.438,-37.598,0.000
1760229777.975,-43.457,-39.551,-20.996,-36.621,0.000
1760229777.979,-36.621,-37.598,-18.555,-31.738,0.000
1760229777.983,-16.113,-31.738,-20.020,-29.785,0.000
1760229777.987,-33.203,-30.273,-21.973,-32.715,0.000
1760229777.991,-60.547,-40.039,-14.160,-31.250,0.000
1760229777.995,-43.457,-40.039,-17.090,-27.832,0.000
1760229777.999,-20.996,-35.645,-21.973,-31.250,0.000
1760229778.003,7.812,-36.621,-17.578,-32.227,0.000
1760229778.006,-0.488,-32.715,-20.508,-11.719,0.000
1760229778.010,-23.438,-29.297,-22.461,-25.391,0.000
1760229778.014,-25.391,-34.668,-17.578,-35.156,0.000
1760229778.018,-34.180,-35.156,-17.090,-25.391,0.000
1760229778.022,-44.922,-28.809,-20.020,-23.926,0.000
1760229778.026,-30.273,-30.762,-22.461,-21.484,0.000
1760229778.030,-4.883,-40.039,-16.113,-20.996,0.000
1760229778.034,-6.836,-38.086,-17.090,-11.719,0.000
1760229778.038,-14.160,-33.203,-25.391,-18.066,0.000
1760229778.042,-8.301,-26.367,-28.320,-11.719,0.000
1760229778.046,-17.578,-27.344,-22.461,-24.902,0.000
1760229778.049,-27.832,-29.785,-18.066,-33.203,0.000
1760229778.053,-35.645,-29.785,-19.531,-31.738,0.000
1760229778.057,-26.855,-31.250,-22.461,-40.039,0.000
1760229778.061,-24.414,-31.738,-24.902,-24.902,0.000
1760229778.065,-24.414,-25.391,-24.902,-23.438,0.000
1760229778.069,-22.949,-20.508,-22.949,-32.715,0.000
1760229778.073,-19.043,-24.414,-23.926,-36.621,0.000
1760229778.077,29.785,-24.902,-27.344,-41.992,0.000
1760229778.081,-4.883,-29.297,-26.367,-46.875,0.000
1760229778.085,-59.082,-25.879,-24.902,-33.691,0.000
1760229778.088,-41.992,-20.020,-21.973,-28.809,0.000
1760229778.092,-29.785,-26.367,-25.879,-28.809,0.000
1760229778.096,-27.832,-28.809,-25.391,-25.391,0.000
1760229778.100,-14.160,-28.320,-19.043,-32.715,0.000
1760229778.104,-5.859,-26.367,-18.066,-22.949,0.000
1760229778.108,-12.207,-23.438,-20.996,-10.742,0.000
1760229778.112,-6.836,-25.391,-25.391,-26.855,0.000
1760229778.116,-10.254,-29.297,-27.832,-39.062,0.000
1760229778.120,-11.230,-24.414,-30.273,-32.715,0.000
1760229778.124,-41.016,-21.973,-31.738,-35.156,0.000
1760229778.128,-30.762,-26.855,-27.344,-34.668,0.000
1760229778.131,-8.301,-24.902,-25.391,2.441,0.000
1760229778.135,-6.348,-22.461,-29.297,8.301,0.000
1760229778.139,1.465,-27.832,-23.438,-29.297,0.000
1760229778.143,-17.578,-32.715,-17.090,-35.645,0.000
1760229778.147,-40.039,-30.273,-22.949,-30.273,0.000
1760229778.151,-23.926,-24.902,-25.391,-17.578,0.000
1760229778.155,-5.859,-26.855,-22.461,-1.465,0.000
1760229778.159,-19.531,-26.367,-20.996,-14.160,0.000
1760229778.163,-33.203,-26.367,-21.484,-23.438,0.000
1760229778.167,-25.879,-31.738,-21.484,-13.184,0.000
1760229778.171,-12.695,-30.273,-21.973,-12.207,0.000
1760229778.174,-20.020,-38.086,-25.879,-41.992,0.000
1760229778.178,-42.480,-43.457,-24.414,-38.574,0.000
1760229778.182,-34.668,-35.645,-22.461,-32.715,0.000
1760229778.186,-30.273,-34.668,-21.484,-36.133,0.000
1760229778.190,-32.715,-30.762,-25.879,-33.203,0.000
1760229778.194,-35.156,-27.344,-25.879,-44.922,0.000
1760229778.198,-32.715,-27.344,-22.949,-52.734,0.000
1760229778.202,-0.977,-27.832,-27.344,-30.762,0.000
1760229778.206,-7.812,-31.250,-19.043,-2.930,0.000
1760229778.210,-25.879,-27.344,-16.602,-22.949,0.000
1760229778.213,-12.695,-18.066,-20.508,-45.898,0.000
1760229778.217,-19.531,-21.973,-25.391,-48.828,0.000
1760229778.221,-42.480,-31.738,-27.832,-49.316,0.000
1760229778.225,-41.016,-30.762,-19.531,-34.180,0.000
1760229778.229,-3.906,-28.320,-16.113,-26.367,0.000
1760229778.233,-20.996,-32.227,-16.113,-25.391,0.000
1760229778.237,-30.762,-35.645,-17.578,-24.902,0.000
1760229778.241,-0.488,-30.273,-20.020,-31.250,0.000
1760229778.245,-1.465,-27.344,-20.020,-48.340,0.000
1760229778.249,-50.781,-31.738,-24.414,-45.410,0.000
1760229778.252,-59.082,-29.297,-26.855,-34.668,0.000
1760229778.256,-37.598,-27.344,-25.879,-47.852,0.000
1760229778.260,-29.785,-33.691,-27.832,-62.500,0.000
1760229778.264,-48.828,-33.691,-29.297,-63.965,0.000
1760229778.268,-55.664,-31.738,-26.367,-42.969,0.000
1760229778.272,-52.246,-39.551,-23.438,-39.551,0.000
1760229778.276,-39.551,-34.668,-23.926,-47.363,0.000
1760229778.280,-12.695,-29.297,-22.949,-48.340,0.000
1760229778.284,-1.953,-30.273,-19.043,-39.062,0.000
1760229778.288,-36.133,-26.367,-21.973,-25.391,0.000
1760229778.292,-59.082,-26.367,-21.973,-41.992,0.000
1760229778.295,-36.133,-30.762,-18.066,-37.109,0.000
1760229778.299,-56.152,-34.180,-19.043,-33.691,0.000
1760229778.303,-66.406,-33.691,-19.531,-59.570,0.000
1760229778.307,-26.855,-30.273,-19.531,-44.434,0.000
1760229778.311,-16.602,-31.738,-20.996,-35.156,0.000
1760229778.315,-48.340,-35.645,-20.508,-58.594,0.000
1760229778.319,-24.414,-33.203,-17.090,-45.898,0.000
1760229778.323,-0.488,-31.250,-18.066,-27.832,0.000
1760229778.327,-25.391,-34.668,-26.367,-50.781,0.000
1760229778.331,-45.898,-41.992,-29.297,-50.293,0.000
1760229778.335,-41.504,-45.410,-26.367,-44.922,0.000
1760229778.338,-21.973,-39.062,-23.438,-52.246,0.000
1760229778.342,-7.324,-34.180,-24.414,-39.062,0.000
1760229778.346,-24.414,-36.621,-34.668,-23.926,0.000
1760229778.350,-65.430,-34.180,-38.574,-40.527,0.000
1760229778.354,-62.500,-29.297,-33.203,-69.824,0.000
1760229778.358,-43.945,-27.344,-33.203,-52.246,0.000
1760229778.362,-47.363,-30.273,-32.227,-37.598,0.000
1760229778.366,-43.457,-34.668,-30.273,-68.359,0.000
1760229778.370,-45.410,-38.086,-27.344,-76.172,0.000
1760229778.374,-38.574,-37.109,-31.250,-59.570,0.000
1760229778.378,-35.645,-32.227,-33.691,-42.969,0.000
1760229778.381,-24.902,-34.668,-23.926,-43.457,0.000
1760229778.385,-19.531,-42.480,-19.043,-43.457,0.000
1760229778.389,-30.762,-42.480,-25.391,-33.203,0.000
1760229778.393,-30.762,-40.527,-33.203,-17.090,0.000
1760229778.397,-45.898,-40.039,-32.227,-38.086,0.000
1760229778.401,-39.551,-39.551,-28.809,-58.105,0.000
1760229778.405,-19.043,-40.527,-32.227,-33.203,0.000
1760229778.409,-18.555,-34.180,-32.715,-37.598,0.000
1760229778.413,-41.504,-29.297,-32.227,-61.035,0.000
1760229778.417,-50.293,-36.133,-38.086,-58.105,0.000
1760229778.421,-31.250,-38.574,-37.598,-48.340,0.000
1760229778.424,-4.883,-27.832,-29.297,-29.785,0.000
1760229778.428,-3.418,-37.109,-34.180,-36.621,0.000
1760229778.432,-31.738,-51.758,-33.691,-50.781,0.000
1760229778.436,-41.504,-34.668,-26.855,-33.691,0.000
1760229778.440,-49.805,-27.832,-30.762,-19.043,0.000
1760229778.444,-14.160,-28.809,-32.715,-30.273,0.000
1760229778.448,8.789,-28.809,-32.227,-28.809,0.000
1760229778.452,5.371,-30.762,-27.344,-19.531,0.000
1760229778.456,-33.203,-32.227,-21.973,-48.828,0.000
1760229778.460,-53.223,-28.809,-21.973,-55.664,0.000
1760229778.463,-30.762,-29.297,-18.066,-43.945,0.000
1760229778.467,-14.648,-32.227,-14.160,-37.109,0.000
1760229778.471,2.441,-31.250,-19.043,-38.574,0.000
1760229778.475,-11.719,-29.785,-21.484,-41.504,0.000
1760229778.479,-37.598,-28.320,-20.508,-24.902,0.000
1760229778.483,-37.109,-34.180,-28.809,-15.625,0.000
1760229778.487,-46.875,-38.574,-32.715,-43.945,0.000
1760229778.491,-30.762,-34.668,-31.738,-57.617,0.000
1760229778.495,-13.184,-32.227,-30.762,-48.828,0.000
1760229778.499,-47.852,-36.133,-25.391,-47.363,0.000
1760229778.503,-27.832,-34.668,-22.461,-43.457,0.000
1760229778.506,-2.930,-33.691,-25.879,-38.086,0.000
1760229778.510,-21.484,-38.086,-31.738,-27.832,0.000
1760229778.514,-45.410,-41.504,-30.273,-38.086,0.000
1760229778.518,-52.734,-44.434,-26.855,-29.297,0.000
1760229778.522,-32.227,-38.574,-33.691,-26.855,0.000
1760229778.526,-10.254,-34.668,-33.203,-44.922,0.000
1760229778.530,-35.645,-35.645,-33.203,-55.176,0.000
1760229778.534,-36.133,-31.250,-33.203,-53.711,0.000
1760229778.538,-25.879,-36.133,-27.832,-30.273,0.000
1760229778.542,-29.297,-38.086,-26.367,-18.066,0.000
1760229778.545,-41.016,-39.062,-28.809,-24.414,0.000
1760229778.549,-66.406,-44.434,-33.203,-41.992,0.000
1760229778.553,-61.523,-43.945,-38.086,-62.012,0.000
1760229778.557,-43.945,-40.039,-30.273,-53.223,0.000
1760229778.561,-40.527,-32.227,-25.391,-37.598,0.000
1760229778.565,-34.180,-35.156,-23.926,-30.762,0.000
1760229778.569,-8.301,-47.363,-21.973,-19.043,0.000
1760229778.573,-20.020,-49.316,-26.367,-49.805,0.000
1760229778.577,-36.133,-43.457,-28.320,-81.055,0.000
1760229778.581,-24.414,-41.992,-27.832,-48.340,0.000
1760229778.585,-58.105,-45.898,-22.949,-27.344,0.000
1760229778.588,-61.035,-44.922,-29.297,-52.246,0.000
1760229778.592,-44.922,-38.086,-36.621,-70.312,0.000
1760229778.596,-43.945,-36.621,-32.715,-60.547,0.000
1760229778.600,-36.133,-35.645,-26.855,-47.852,0.000
1760229778.604,-55.664,-34.668,-27.344,-53.711,0.000
1760229778.608,-58.105,-39.062,-28.809,-61.035,0.000
1760229778.612,-64.453,-45.898,-26.367,-57.617,0.000
1760229778.616,-63.477,-48.340,-29.785,-50.781,0.000
1760229778.620,-60.059,-48.828,-35.645,-59.570,0.000
1760229778.624,-6.348,-38.574,-40.039,-50.781,0.000
1760229778.627,0.000,-35.156,-41.504,-57.129,0.000
1760229778.631,-64.453,-52.734,-34.180,-57.617,0.000
1760229778.635,-83.008,-50.781,-27.832,-40.039,0.000
1760229778.639,-65.918,-38.086,-29.297,-54.199,0.000
1760229778.643,-39.551,-32.715,-32.715,-54.688,0.000
1760229778.647,-48.340,-34.668,-37.598,-71.777,0.000
1760229778.651,-59.082,-42.969,-36.621,-66.895,0.000
1760229778.655,-32.227,-45.898,-35.156,-42.969,0.000
1760229778.659,-37.598,-45.410,-27.344,-41.504,0.000
1760229778.663,-63.477,-44.922,-26.367,-43.945,0.000
1760229778.667,-32.227,-34.668,-30.762,-31.250,0.000
1760229778.670,3.418,-33.691,-31.250,-27.344,0.000
1760229778.674,-4.395,-36.133,-41.504,-61.523,0.000
1760229778.678,-50.293,-39.062,-33.691,-56.641,0.000
1760229778.682,-80.078,-50.293,-22.949,-48.340,0.000
1760229778.686,-51.270,-39.551,-28.809,-71.289,0.000
1760229778.690,-38.574,-23.438,-38.574,-68.848,0.000
1760229778.694,-34.180,-25.391,-39.062,-58.105,0.000
1760229778.698,-34.668,-35.645,-26.367,-45.898,0.000
1760229778.702,-31.250,-37.598,-21.484,-29.297,0.000
1760229778.706,-35.645,-34.668,-24.902,-31.250,0.000
1760229778.710,-41.504,-39.062,-29.297,-43.457,0.000
1760229778.713,-19.043,-33.691,-30.762,-28.809,0.000
1760229778.717,-17.578,-32.227,-37.598,-38.086,0.000
1760229778.721,-35.645,-36.133,-40.527,-52.734,0.000
1760229778.725,-43.945,-33.203,-31.738,-32.227,0.000
1760229778.729,-41.992,-32.715,-25.391,-27.344,0.000
1760229778.733,-30.273,-32.715,-27.344,-24.414,0.000
1760229778.737,-25.391,-29.785,-31.250,-41.016,0.000
1760229778.741,-38.086,-30.762,-25.879,-41.504,0.000
1760229778.745,-43.945,-36.621,-23.438,-27.832,0.000
1760229778.749,-30.762,-33.691,-31.250,-54.199,0.000
1760229778.753,-20.996,-24.902,-32.715,-54.199,0.000
1760229778.756,-21.973,-27.832,-26.855,-44.434,0.000
1760229778.760,-48.340,-39.551,-27.344,-44.434,0.000
1760229778.764,-31.250,-34.668,-33.691,-56.152,0.000
1760229778.768,-33.691,-21.484,-35.645,-46.875,0.000
1760229778.772,-54.199,-28.320,-27.344,-22.461,0.000
1760229778.776,-38.086,-39.062,-12.695,-16.602,0.000
1760229778.780,-31.250,-42.969,-11.719,-34.180,0.000
1760229778.784,-54.199,-45.410,-22.949,-70.312,0.000
1760229778.788,-48.828,-42.480,-29.785,-41.504,0.000
1760229778.792,-6.348,-49.316,-24.902,-19.531,0.000
1760229778.795,-23.926,-54.688,-17.578,-46.387,0.000
1760229778.799,-54.199,-43.945,-21.973,-53.223,0.000
1760229778.803,-33.691,-37.598,-30.273,-64.941,0.000
1760229778.807,-42.480,-36.621,-34.668,-51.758,0.000
1760229778.811,-49.316,-36.621,-30.273,-37.109,0.000
1760229778.815,-23.438,-34.668,-16.602,-20.020,0.000
1760229778.819,-16.113,-39.062,-14.648,-18.555,0.000
1760229778.823,-20.508,-38.574,-20.508,-23.926,0.000
1760229778.827,-27.832,-33.203,-26.855,-22.949,0.000
1760229778.831,-45.410,-37.598,-27.832,-44.922,0.000
1760229778.835,-35.156,-46.387,-19.531,-31.250,0.000
1760229778.838,0.977,-43.945,-20.508,-29.785,0.000
1760229778.842,-1.953,-34.668,-20.996,-56.641,0.000
1760229778.846,-43.457,-34.668,-26.855,-66.895,0.000
1760229778.850,-32.227,-30.762,-25.391,-60.059,0.000
1760229778.854,-17.578,-32.715,-15.625,-34.668,0.000
1760229778.858,-41.992,-33.203,-11.719,-17.090,0.000
1760229778.862,-31.250,-29.785,-15.137,-27.344,0.000
1760229778.866,-18.066,-29.297,-20.996,-28.320,0.000
1760229778.870,-35.645,-25.391,-23.926,-39.551,0.000
1760229778.874,-34.668,-29.785,-25.879,-44.922,0.000
1760229778.878,-25.391,-36.621,-19.531,-31.250,0.000
1760229778.881,-46.387,-37.109,-20.020,-44.434,0.000
1760229778.885,-40.527,-40.039,-20.508,-35.645,0.000
1760229778.889,-31.250,-36.133,-26.855,-56.152,0.000
1760229778.893,-28.809,-30.273,-27.344,-68.848,0.000
1760229778.897,-25.391,-35.156,-15.625,-26.855,0.000
1760229778.901,-22.461,-41.504,-17.090,-15.137,0.000
1760229778.905,-22.461,-36.621,-27.832,-37.598,0.000
1760229778.909,-36.621,-26.367,-29.297,-63.477,0.000
1760229778.913,-46.387,-22.461,-23.438,-47.852,0.000
1760229778.917,-16.602,-25.879,-19.531,-34.180,0.000
1760229778.920,-16.113,-28.809,-18.555,-48.340,0.000
1760229778.924,-37.598,-28.809,-19.531,-41.504,0.000
1760229778.928,-26.855,-25.879,-22.461,-34.180,0.000
1760229778.932,0.488,-31.250,-29.297,-36.133,0.000
1760229778.936,30.273,-23.926,-29.297,-26.855,0.000
1760229778.940,9.277,-14.648,-24.414,-20.020,0.000
1760229778.944,-30.273,-20.508,-27.832,-21.973,0.000
1760229778.948,-39.551,-19.043,-33.203,-34.180,0.000
1760229778.952,-20.020,-20.996,-35.645,-36.621,0.000
1760229778.956,1.465,-28.809,-36.133,-30.273,0.000
1760229778.960,-31.250,-29.297,-34.180,-51.758,0.000
1760229778.963,-44.434,-29.785,-28.320,-45.410,0.000
1760229778.967,-27.832,-30.762,-19.043,-21.973,0.000
1760229778.971,-43.945,-31.250,-19.043,-27.344,0.000
1760229778.975,-20.996,-31.250,-23.926,-27.832,0.000
1760229778.979,4.883,-25.391,-18.555,-22.949,0.000
1760229778.983,-24.414,-22.461,-18.066,-19.043,0.000
1760229778.987,-30.273,-27.344,-22.949,-11.230,0.000
1760229778.991,-7.812,-29.297,-25.879,-38.574,0.000
1760229778.995,-28.809,-33.691,-24.902,-63.477,0.000
1760229778.999,-46.387,-35.156,-24.902,-41.016,0.000
1760229779.002,9.277,-26.855,-22.949,-17.090,0.000
1760229779.006,19.531,-20.020,-19.531,0.000,0.000
1760229779.010,-11.719,-22.949,-28.320,-12.695,0.000
1760229779.014,-13.184,-29.785,-33.691,-44.922,0.000
1760229779.018,-37.109,-28.809,-26.855,-32.227,0.000
1760229779.022,-43.457,-27.832,-28.809,-35.156,0.000
1760229779.026,-45.410,-26.855,-28.809,-53.223,0.000
1760229779.030,-23.926,-27.832,-22.949,-46.387,0.000
1760229779.034,-23.438,-31.738,-26.367,-20.996,0.000
1760229779.038,-31.738,-32.227,-33.691,-18.555,0.000
1760229779.042,-35.645,-33.691,-31.738,-25.391,0.000
1760229779.045,-50.781,-35.645,-25.879,-38.086,0.000
1760229779.049,-36.621,-36.621,-28.320,-41.504,0.000
1760229779.053,-44.434,-35.156,-32.715,-34.668,0.000
1760229779.057,-50.781,-25.879,-31.250,-32.227,0.000
1760229779.061,-30.273,-22.461,-33.691,-33.203,0.000
1760229779.065,-22.949,-29.297,-35.645,-44.922,0.000
1760229779.069,-34.668,-34.668,-31.738,-43.945,0.000
1760229779.073,-37.598,-33.203,-25.879,-27.344,0.000
1760229779.077,-37.109,-30.762,-24.414,-22.461,0.000
1760229779.081,-32.715,-36.621,-29.297,-28.809,0.000
1760229779.084,-34.668,-37.598,-34.668,-53.711,0.000
1760229779.088,-24.902,-31.250,-34.180,-46.387,0.000
1760229779.092,-14.160,-32.227,-30.762,-16.602,0.000
1760229779.096,-35.645,-34.668,-27.832,0.488,0.000
1760229779.100,-62.012,-36.621,-23.926,-24.902,0.000
1760229779.104,-50.781,-36.133,-24.902,-52.246,0.000
1760229779.108,-45.898,-41.992,-32.227,-63.965,0.000
1760229779.112,-74.219,-52.734,-28.320,-50.781,0.000
1760229779.116,-61.523,-50.293,-22.949,-25.879,0.000
1760229779.120,-42.969,-43.945,-25.879,-52.246,0.000
1760229779.124,-38.086,-41.016,-33.691,-56.641,0.000
1760229779.127,-20.996,-40.527,-40.527,-44.434,0.000
1760229779.131,-34.180,-45.898,-31.738,-47.363,0.000
1760229779.135,-41.992,-40.527,-25.879,-53.711,0.000
1760229779.139,-16.602,-31.250,-31.250,-55.664,0.000
1760229779.143,-39.551,-31.250,-32.715,-44.434,0.000
1760229779.147,-52.246,-33.203,-29.785,-32.227,0.000
1760229779.151,-25.879,-34.668,-28.320,-34.668,0.000
1760229779.155,-29.785,-35.645,-27.832,-20.996,0.000
1760229779.159,-48.828,-37.598,-26.367,-32.227,0.000
1760229779.163,-46.875,-41.016,-26.855,-67.871,0.000
1760229779.167,-22.461,-41.016,-26.855,-60.059,0.000
1760229779.170,-37.598,-40.039,-29.297,-43.945,0.000
1760229779.174,-29.297,-37.598,-31.738,-22.461,0.000
1760229779.178,-27.344,-34.180,-32.227,-33.203,0.000
1760229779.182,-25.879,-39.062,-34.180,-32.715,0.000
1760229779.186,3.418,-37.598,-32.715,-8.789,0.000
1760229779.190,-28.809,-32.227,-28.809,-22.949,0.000
1760229779.194,-40.527,-36.133,-27.832,-31.250,0.000
1760229779.198,-20.996,-34.180,-26.367,-24.902,0.000
1760229779.202,-20.996,-30.762,-34.668,-35.645,0.000
1760229779.206,-35.156,-33.203,-41.992,-38.086,0.000
1760229779.210,-14.160,-41.992,-38.574,-20.020,0.000
1760229779.213,-11.230,-46.387,-36.133,0.488,0.000
1760229779.217,-36.621,-34.180,-37.109,-23.926,0.000
1760229779.221,-28.320,-34.180,-36.621,-41.504,0.000
1760229779.225,-17.578,-41.504,-33.691,-38.086,0.000
1760229779.229,-18.555,-42.969,-33.691,-35.645,0.000
1760229779.233,-33.203,-40.527,-34.668,-27.832,0.000
1760229779.237,-27.344,-35.156,-32.227,-19.043,0.000
1760229779.241,-1.465,-35.645,-33.203,-13.184,0.000
1760229779.245,-6.348,-38.086,-28.320,-30.273,0.000
1760229779.249,-36.133,-34.668,-25.879,-22.949,0.000
1760229779.252,-63.965,-32.715,-33.203,-34.180,0.000
1760229779.256,-48.340,-34.180,-28.320,-43.945,0.000
1760229779.260,-29.297,-29.785,-26.367,-30.762,0.000
1760229779.264,-22.949,-24.414,-30.273,-36.133,0.000
1760229779.268,-28.809,-22.461,-30.762,-42.969,0.000
1760229779.272,-52.246,-28.320,-23.438,-33.203,0.000
1760229779.276,1.465,-30.762,-24.414,-23.438,0.000
1760229779.280,-0.488,-28.809,-31.738,-30.762,0.000
1760229779.284,-45.410,-27.344,-24.902,-53.711,0.000
1760229779.288,-40.527,-27.344,-22.461,-62.988,0.000
1760229779.291,-31.738,-30.273,-22.461,-43.945,0.000
1760229779.295,-24.902,-33.203,-22.461,-34.668,0.000
1760229779.299,-24.902,-38.574,-20.508,-38.086,0.000
1760229779.303,-35.156,-45.898,-22.461,-37.598,0.000
1760229779.307,-21.973,-45.410,-33.203,-24.902,0.000
1760229779.311,-36.621,-37.109,-33.203,-36.133,0.000
1760229779.315,-56.641,-31.250,-24.414,-41.992,0.000
1760229779.319,-25.879,-31.738,-23.438,-29.297,0.000
1760229779.323,-34.668,-35.645,-27.832,-40.039,0.000
1760229779.327,-49.805,-38.574,-29.297,-53.223,0.000
1760229779.331,-32.227,-35.645,-24.902,-52.246,0.000
1760229779.334,-28.320,-36.621,-23.926,-19.531,0.000
1760229779.338,-35.156,-43.457,-25.879,-33.691,0.000
1760229779.342,-49.805,-40.039,-20.508,-59.570,0.000
1760229779.346,-62.500,-31.250,-19.531,-41.992,0.000
1760229779.350,-37.109,-32.715,-24.902,-50.293,0.000
1760229779.354,-38.574,-35.645,-24.414,-56.641,0.000
1760229779.358,-48.340,-34.668,-26.855,-43.945,0.000
1760229779.362,-31.250,-33.203,-29.297,-40.039,0.000
1760229779.366,-34.180,-30.273,-24.902,-29.297,0.000
1760229779.370,-29.785,-30.762,-18.555,-29.785,0.000
1760229779.374,-6.348,-32.715,-21.484,-38.086,0.000
1760229779.377,-12.695,-34.180,-27.344,-27.832,0.000
1760229779.381,-58.594,-39.551,-25.391,-49.805,0.000
1760229779.385,-55.664,-36.621,-24.902,-64.453,0.000
1760229779.389,-34.668,-30.762,-21.973,-35.645,0.000
1760229779.393,-39.551,-36.621,-22.461,-25.879,0.000
1760229779.397,-32.227,-35.645,-29.297,-38.086,0.000
1760229779.401,-31.738,-28.320,-30.273,-38.086,0.000
1760229779.405,-41.504,-27.832,-25.391,-37.598,0.000
1760229779.409,-39.551,-27.832,-24.902,-35.156,0.000
1760229779.413,-17.578,-27.832,-23.438,-34.668,0.000
1760229779.416,-19.043,-35.156,-18.066,-33.203,0.000
1760229779.420,-39.551,-35.645,-20.996,-50.293,0.000
1760229779.424,-30.762,-28.809,-20.996,-69.336,0.000
1760229779.428,-54.199,-32.715,-19.043,-49.316,0.000
1760229779.432,-42.480,-34.668,-26.367,-39.551,0.000
1760229779.436,18.066,-30.762,-25.391,-25.879,0.000
1760229779.440,-1.465,-33.691,-20.020,-26.855,0.000
1760229779.444,-48.340,-37.109,-30.273,-28.809,0.000
1760229779.448,-18.555,-28.809,-37.109,-31.738,0.000
1760229779.452,-33.203,-28.320,-30.762,-43.945,0.000
1760229779.456,-23.926,-34.180,-27.344,-42.480,0.000
1760229779.459,-3.906,-28.320,-25.391,-29.785,0.000
1760229779.463,-42.969,-26.855,-24.414,-48.340,0.000
1760229779.467,-32.715,-29.785,-22.461,-50.293,0.000
1760229779.471,-5.371,-31.250,-22.461,-28.809,0.000
1760229779.475,10.254,-32.227,-22.461,-45.410,0.000
1760229779.479,-26.855,-32.715,-17.578,-40.527,0.000
1760229779.483,-40.039,-33.203,-21.484,-22.461,0.000
1760229779.487,-10.742,-35.645,-26.367,-39.551,0.000
1760229779.491,-37.109,-41.016,-28.809,-37.109,0.000
1760229779.495,-46.875,-35.645,-27.344,-24.414,0.000
1760229779.499,-35.156,-32.227,-23.438,-44.922,0.000
1760229779.502,-21.973,-37.109,-23.926,-60.059,0.000
1760229779.506,-23.926,-34.180,-23.438,-49.805,0.000
1760229779.510,-28.809,-30.273,-24.902,-34.180,0.000
1760229779.514,-19.043,-34.180,-24.902,-32.715,0.000
1760229779.518,-10.742,-34.668,-25.391,-40.527,0.000
1760229779.522,1.953,-33.203,-21.973,-34.180,0.000
1760229779.526,-31.738,-29.297,-17.090,-14.648,0.000
1760229779.530,-18.555,-24.902,-23.438,-40.039,0.000
1760229779.534,-13.184,-25.879,-21.973,-59.082,0.000
1760229779.538,-35.645,-29.297,-20.020,-52.246,0.000
1760229779.542,-18.555,-27.344,-21.973,-27.344,0.000
1760229779.545,-44.922,-27.832,-24.414,-30.762,0.000
1760229779.549,-40.039,-32.715,-25.391,-52.734,0.000
1760229779.553,-15.625,-30.273,-20.020,-40.039,0.000
1760229779.557,-16.113,-30.273,-14.648,-48.828,0.000
1760229779.561,-14.160,-37.109,-15.625,-49.316,0.000
1760229779.565,-30.762,-34.668,-16.113,-36.133,0.000
1760229779.569,-51.270,-32.227,-18.066,-30.273,0.000
1760229779.573,-45.898,-33.691,-21.484,-29.297,0.000
1760229779.577,-24.902,-32.715,-13.672,-49.316,0.000
1760229779.581,-8.301,-32.715,-7.324,-58.105,0.000
1760229779.584,-28.320,-33.691,-12.207,-45.898,0.000
1760229779.588,-16.602,-30.273,-15.137,-49.316,0.000
1760229779.592,-2.930,-31.250,-17.578,-40.527,0.000
1760229779.596,-40.039,-37.598,-25.391,-19.531,0.000
1760229779.600,-47.852,-32.227,-28.320,-26.855,0.000
1760229779.604,13.184,-27.832,-23.926,-21.484,0.000
1760229779.608,-18.555,-32.227,-30.762,-21.973,0.000
1760229779.612,-43.945,-33.203,-33.691,-47.852,0.000
1760229779.616,-32.715,-32.227,-27.832,-35.645,0.000
1760229779.620,-64.453,-34.668,-29.297,-52.246,0.000
1760229779.624,-49.316,-39.551,-29.785,-62.988,0.000
1760229779.627,-32.227,-37.109,-29.785,-50.781,0.000
1760229779.631,-1.465,-30.762,-32.227,-44.922,0.000
1760229779.635,-17.578,-40.039,-35.645,-42.969,0.000
1760229779.639,-69.824,-41.016,-31.250,-31.738,0.000
1760229779.643,-39.062,-26.367,-26.367,-34.180,0.000
1760229779.647,-13.184,-28.809,-24.902,-50.781,0.000
1760229779.651,-24.414,-34.180,-24.902,-36.133,0.000
1760229779.655,-27.832,-32.227,-25.879,-25.879,0.000
1760229779.659,-27.344,-32.715,-27.344,-30.273,0.000
1760229779.663,-44.434,-32.715,-29.297,-48.340,0.000
1760229779.666,-47.852,-30.273,-23.926,-51.270,0.000
1760229779.670,-34.180,-26.367,-26.367,-45.898,0.000
1760229779.674,3.418,-21.973,-28.809,-51.270,0.000
1760229779.678,-8.301,-22.461,-23.926,-50.293,0.000
1760229779.682,-53.223,-31.250,-18.555,-39.551,0.000
1760229779.686,-49.316,-30.762,-16.602,-23.926,0.000
1760229779.690,-43.457,-24.414,-26.367,-43.457,0.000
1760229779.694,-37.598,-27.344,-30.273,-32.227,0.000
1760229779.698,3.906,-29.297,-27.832,-35.645,0.000
1760229779.702,-7.812,-32.227,-27.344,-43.457,0.000
1760229779.706,-53.223,-41.992,-23.438,-26.367,0.000
1760229779.709,-50.293,-43.945,-23.438,-39.062,0.000
1760229779.713,-20.996,-40.039,-26.367,-52.734,0.000
1760229779.717,-43.945,-41.504,-25.879,-68.848,0.000
1760229779.721,-57.129,-41.016,-22.461,-58.594,0.000
1760229779.725,-41.992,-40.527,-23.926,-33.203,0.000
1760229779.729,-31.738,-41.992,-24.414,-38.086,0.000
1760229779.733,-30.273,-41.016,-24.902,-31.250,0.000
1760229779.737,-50.781,-42.969,-29.297,-37.598,0.000
1760229779.741,-24.414,-40.039,-25.879,-27.344,0.000
1760229779.745,-31.738,-33.691,-23.926,-7.324,0.000
1760229779.748,-57.129,-30.762,-26.855,-46.387,0.000
1760229779.752,-41.992,-29.297,-23.926,-54.199,0.000
1760229779.756,-33.203,-31.738,-18.066,-40.039,0.000
1760229779.760,-36.621,-34.668,-19.043,-38.086,0.000
1760229779.764,-34.180,-32.227,-18.066,-34.668,0.000
1760229779.768,-34.668,-31.738,-16.113,-50.293,0.000
1760229779.772,-38.574,-35.156,-21.484,-35.645,0.000
1760229779.776,-38.086,-33.203,-26.855,-29.297,0.000
1760229779.780,-45.898,-31.250,-24.414,-47.363,0.000
1760229779.784,-34.180,-31.738,-21.973,-26.855,0.000
1760229779.788,-28.320,-32.715,-22.949,-36.621,0.000
1760229779.791,-37.598,-28.320,-22.949,-55.176,0.000
1760229779.795,-41.016,-32.715,-27.344,-60.059,0.000
1760229779.799,-28.320,-35.156,-27.832,-46.875,0.000
1760229779.803,-1.953,-28.320,-23.926,-23.926,0.000
1760229779.807,-15.625,-28.320,-24.414,-27.832,0.000
1760229779.811,-43.945,-34.668,-28.320,-50.781,0.000
1760229779.815,-39.062,-32.715,-27.344,-56.641,0.000
1760229779.819,-34.180,-30.273,-24.902,-41.504,0.000
1760229779.823,-26.367,-31.250,-24.414,-36.133,0.000
1760229779.827,-5.859,-32.227,-24.902,-26.367,0.000
1760229779.831,-21.973,-32.715,-26.367,-11.719,0.000
1760229779.834,-48.340,-31.738,-27.832,-33.691,0.000
1760229779.838,-54.199,-33.203,-27.344,-43.945,0.000
1760229779.842,-28.809,-34.180,-23.926,-29.785,0.000
1760229779.846,1.465,-36.133,-22.461,-39.551,0.000
1760229779.850,-16.113,-40.527,-22.949,-41.504,0.000
1760229779.854,-28.320,-39.551,-22.461,-36.621,0.000
1760229779.858,-6.836,-34.180,-21.973,-36.133,0.000
1760229779.862,-2.930,-30.762,-25.391,-33.203,0.000
1760229779.866,-31.250,-34.668,-28.809,-31.250,0.000
1760229779.870,-22.949,-36.621,-26.367,-19.043,0.000
1760229779.873,-25.391,-39.551,-24.414,-17.090,0.000
1760229779.877,-25.391,-40.039,-24.902,-20.020,0.000
1760229779.881,-22.461,-35.645,-25.879,-41.992,0.000
1760229779.885,-25.879,-37.109,-32.715,-49.316,0.000
1760229779.889,-32.227,-36.621,-33.203,-39.551,0.000
1760229779.893,-44.922,-39.551,-27.344,-41.504,0.000
1760229779.897,-58.594,-37.598,-27.344,-47.363,0.000
1760229779.901,-18.066,-33.691,-27.832,-30.762,0.000
1760229779.905,-5.859,-32.227,-21.973,-32.715,0.000
1760229779.909,-50.781,-29.785,-17.578,-37.598,0.000
1760229779.913,-53.711,-37.109,-18.555,-25.879,0.000
1760229779.916,-55.664,-37.598,-20.508,-31.250,0.000
1760229779.920,-31.738,-29.297,-19.043,-24.414,0.000
1760229779.924,-12.207,-27.832,-20.020,-41.992,0.000
1760229779.928,-27.344,-26.367,-21.484,-56.152,0.000
1760229779.932,-7.324,-24.414,-22.461,-41.016,0.000
1760229779.936,-23.438,-29.785,-25.879,-18.555,0.000
1760229779.940,-47.852,-33.203,-26.367,-15.137,0.000
1760229779.944,-32.227,-31.250,-28.320,-48.340,0.000
1760229779.948,-42.480,-31.250,-27.832,-29.785,0.000
1760229779.952,-44.922,-34.180,-25.391,-31.738,0.000
1760229779.956,-20.020,-35.156,-25.879,-59.082,0.000
1760229779.959,-8.789,-32.715,-22.461,-44.922,0.000
1760229779.963,-34.668,-31.738,-22.461,-57.617,0.000
1760229779.967,-42.480,-29.297,-27.832,-51.270,0.000
1760229779.971,-35.645,-32.227,-28.809,-41.992,0.000
1760229779.975,-21.973,-30.273,-21.484,-30.273,0.000
1760229779.979,-29.297,-32.227,-19.043,-36.621,0.000
1760229779.983,-25.391,-39.551,-22.461,-33.203,0.000
1760229779.987,-17.578,-35.645,-26.367,-23.926,0.000
1760229779.991,-36.133,-32.227,-29.297,-41.992,0.000
1760229779.995,-35.645,-28.320,-26.855,-43.457,0.000
1760229779.999,-36.133,-24.902,-24.902,-41.504,0.000
1760229780.002,-20.996,-21.973,-25.391,-42.969,0.000
1760229780.006,12.695,-23.438,-27.344,-39.551,0.000
1760229780.010,2.930,-28.809,-26.855,-29.785,0.000
1760229780.014,-24.414,-27.832,-22.461,-41.992,0.000
1760229780.018,-35.156,-28.320,-16.602,-39.551,0.000
1760229780.022,-22.461,-28.320,-21.973,-36.133,0.000
1760229780.026,-12.695,-23.926,-25.879,-24.414,0.000
1760229780.030,-20.996,-24.902,-19.531,-7.812,0.000
1760229780.034,-3.418,-29.785,-23.438,-30.762,0.000
1760229780.038,-9.277,-34.668,-26.855,-47.852,0.000
1760229780.041,-38.574,-41.992,-28.320,-46.875,0.000
1760229780.045,-31.250,-37.109,-27.832,-54.688,0.000
1760229780.049,-22.461,-24.414,-28.809,-55.664,0.000
1760229780.053,-37.598,-24.902,-31.738,-38.574,0.000
1760229780.057,-22.949,-22.461,-24.414,-29.297,0.000
1760229780.061,-23.438,-23.926,-24.902,-16.113,0.000
1760229780.065,-30.762,-31.738,-26.855,-33.691,0.000
1760229780.069,-41.016,-33.691,-26.367,-45.898,0.000
1760229780.073,-40.527,-33.203,-27.344,-30.762,0.000
1760229780.077,-16.113,-37.109,-25.391,-35.645,0.000
1760229780.080,-31.738,-35.156,-30.762,-46.387,0.000
1760229780.084,-39.062,-30.273,-29.785,-56.152,0.000
1760229780.088,-36.621,-25.879,-23.926,-64.453,0.000
1760229780.092,-27.832,-25.879,-25.391,-45.898,0.000
1760229780.096,-25.391,-25.879,-29.785,-25.391,0.000
1760229780.100,-36.621,-30.273,-30.273,-41.016,0.000
1760229780.104,-51.758,-39.062,-29.297,-64.453,0.000
1760229780.108,-26.855,-40.039,-30.762,-63.965,0.000
1760229780.112,-29.785,-37.598,-28.320,-66.406,0.000
1760229780.116,-41.016,-35.156,-27.832,-45.410,0.000
1760229780.120,-30.762,-29.297,-23.438,-36.621,0.000
1760229780.123,-25.879,-27.344,-18.555,-39.062,0.000
1760229780.127,-28.809,-34.180,-21.484,-31.738,0.000
1760229780.131,-37.598,-36.621,-26.367,-34.668,0.000
1760229780.135,-56.641,-36.133,-28.320,-51.270,0.000
1760229780.139,-55.664,-39.551,-27.344,-41.504,0.000
1760229780.143,-35.645,-39.062,-24.902,-36.621,0.000
1760229780.147,-38.086,-36.133,-23.926,-53.711,0.000
1760229780.151,-10.254,-35.645,-17.578,-41.016,0.000
1760229780.155,-24.902,-36.133,-18.066,-31.738,0.000
1760229780.159,-48.340,-34.668,-15.625,-18.555,0.000
1760229780.162,-41.992,-33.691,-12.695,-18.066,0.000
1760229780.166,-33.203,-29.785,-15.137,-19.043,0.000
1760229780.170,-4.883,-29.785,-18.066,-28.809,0.000
1760229780.174,6.836,-34.180,-22.949,-47.852,0.000
1760229780.178,-8.789,-30.273,-22.949,-50.781,0.000
1760229780.182,-25.879,-29.785,-16.602,-46.875,0.000
1760229780.186,-37.109,-33.691,-16.113,-42.480,0.000
1760229780.190,-34.180,-34.180,-17.578,-40.039,0.000
1760229780.194,-24.414,-37.109,-18.066,-30.762,0.000
1760229780.198,-41.504,-35.645,-21.484,-44.922,0.000
1760229780.202,-47.363,-29.785,-25.879,-60.547,0.000
1760229780.205,-35.645,-27.344,-28.320,-50.293,0.000
1760229780.209,-29.785,-32.227,-25.879,-29.785,0.000
1760229780.213,-36.133,-38.086,-19.531,-31.250,0.000
1760229780.217,-39.062,-39.062,-19.531,-41.016,0.000
1760229780.221,-36.621,-36.133,-26.367,-60.547,0.000
1760229780.225,3.418,-32.227,-21.484,-55.664,0.000
1760229780.229,-1.465,-31.250,-20.020,-20.996,0.000
1760229780.233,-33.691,-32.227,-20.020,-16.113,0.000
1760229780.237,-6.348,-32.715,-18.555,-24.902,0.000
1760229780.241,-19.531,-32.715,-23.926,-22.949,0.000
1760229780.245,-41.016,-31.738,-27.832,-37.109,0.000
1760229780.248,-22.461,-27.832,-27.344,-37.598,0.000
1760229780.252,-30.273,-27.832,-29.297,-35.156,0.000
1760229780.256,-56.152,-30.273,-33.203,-30.762,0.000
1760229780.260,-26.367,-28.809,-30.273,-33.691,0.000
1760229780.264,-3.906,-30.273,-24.414,-51.270,0.000
1760229780.268,-39.062,-30.762,-24.902,-52.734,0.000
1760229780.272,-37.109,-22.949,-20.996,-54.199,0.000
1760229780.276,-24.414,-24.414,-19.531,-50.781,0.000
1760229780.280,-34.668,-29.785,-24.902,-42.969,0.000
1760229780.284,-16.602,-29.297,-24.902,-42.480,0.000
1760229780.288,-13.184,-30.273,-23.926,-49.316,0.000
1760229780.291,-43.945,-30.273,-29.785,-45.898,0.000
1760229780.295,-39.551,-23.926,-27.344,-33.203,0.000
1760229780.299,-13.184,-22.461,-19.531,-20.996,0.000
1760229780.303,-18.555,-26.855,-21.484,-31.250,0.000
1760229780.307,-25.879,-30.273,-22.949,-40.039,0.000
1760229780.311,-32.715,-33.203,-18.555,-30.273,0.000
1760229780.315,-36.133,-30.273,-24.902,-46.387,0.000
1760229780.319,-22.461,-24.414,-31.738,-59.570,0.000
1760229780.323,-25.879,-25.879,-31.250,-42.480,0.000
1760229780.327,-18.555,-28.809,-27.832,-29.785,0.000
1760229780.330,-30.762,-29.785,-20.996,-54.688,0.000
1760229780.334,-61.523,-33.203,-21.484,-63.965,0.000
1760229780.338,-34.180,-36.621,-21.973,-46.875,0.000
1760229780.342,-35.645,-36.133,-17.090,-39.551,0.000
1760229780.346,-35.645,-34.668,-18.555,-38.574,0.000
1760229780.350,-7.812,-37.109,-23.926,-64.453,0.000
1760229780.354,-13.672,-39.551,-24.902,-59.082,0.000
1760229780.358,-30.762,-41.016,-21.973,-21.484,0.000
1760229780.362,-23.438,-39.062,-26.855,-18.555,0.000
1760229780.366,-40.039,-44.434,-32.715,-39.551,0.000
1760229780.370,-56.152,-48.340,-29.785,-60.547,0.000
1760229780.373,-51.758,-45.410,-31.738,-48.340,0.000
1760229780.377,-48.340,-41.016,-28.320,-22.949,0.000
1760229780.381,-30.273,-40.039,-25.879,-29.297,0.000
1760229780.385,-41.504,-44.434,-29.297,-43.945,0.000
1760229780.389,-55.664,-46.387,-29.297,-36.621,0.000
1760229780.393,3.418,-41.016,-31.738,-44.434,0.000
1760229780.397,-12.207,-40.039,-31.738,-68.848,0.000
1760229780.401,-52.246,-41.504,-26.367,-62.988,0.000
1760229780.405,-0.488,-34.180,-33.691,-20.020,0.000
1760229780.409,-12.207,-30.273,-38.574,-47.363,0.000
1760229780.412,-66.406,-31.738,-28.809,-56.152,0.000
1760229780.416,-54.688,-27.344,-22.949,-19.531,0.000
1760229780.420,-37.109,-28.320,-24.414,-22.949,0.000
1760229780.424,-33.691,-32.715,-20.020,-34.180,0.000
1760229780.428,-22.461,-35.645,-25.879,-57.129,0.000
1760229780.432,-14.648,-36.133,-34.180,-68.359,0.000
1760229780.436,-27.832,-35.156,-32.227,-53.711,0.000
1760229780.440,-36.621,-39.062,-32.227,-68.848,0.000
1760229780.444,-26.855,-35.645,-25.879,-62.988,0.000
1760229780.448,-24.902,-35.156,-22.461,-30.762,0.000
1760229780.452,-39.551,-39.551,-19.531,-29.297,0.000
1760229780.455,-38.086,-36.133,-29.785,-32.227,0.000
1760229780.459,-35.645,-31.250,-35.645,-28.809,0.000
1760229780.463,-66.406,-31.250,-24.414,-44.922,0.000
1760229780.467,-39.551,-31.738,-26.855,-62.012,0.000
1760229780.471,-41.016,-28.809,-29.785,-59.570,0.000
1760229780.475,-57.129,-31.250,-30.762,-64.941,0.000
1760229780.479,-49.805,-40.039,-33.691,-43.457,0.000
1760229780.483,-45.898,-46.387,-31.250,-36.621,0.000
1760229780.487,-25.879,-42.480,-28.320,-51.270,0.000
1760229780.491,-24.414,-42.969,-29.785,-44.434,0.000
1760229780.494,-52.734,-42.480,-34.180,-58.105,0.000
1760229780.498,-67.383,-39.062,-35.156,-51.270,0.000
1760229780.502,-13.672,-37.109,-36.133,-62.988,0.000
1760229780.506,-27.344,-39.062,-26.855,-57.129,0.000
1760229780.510,-80.078,-45.410,-14.648,-50.781,0.000
1760229780.514,-21.973,-43.457,-16.113,-50.781,0.000
1760229780.518,-31.250,-42.480,-16.113,-27.344,0.000
1760229780.522,-88.379,-45.898,-19.531,-31.738,0.000
1760229780.526,-53.223,-33.203,-28.320,-45.410,0.000
1760229780.530,-57.129,-33.203,-27.832,-32.227,0.000
1760229780.534,-32.227,-43.945,-19.043,-54.688,0.000
1760229780.537,-14.160,-41.504,-21.973,-64.941,0.000
1760229780.541,-46.387,-35.645,-20.996,-20.996,0.000
1760229780.545,-34.180,-35.645,-14.160,-24.902,0.000
1760229780.549,-30.762,-42.480,-11.719,-46.875,0.000
1760229780.553,-29.785,-39.551,-18.066,-45.410,0.000
1760229780.557,-29.297,-31.250,-19.531,-34.668,0.000
1760229780.561,-53.223,-39.551,-20.020,-41.504,0.000
1760229780.565,-47.852,-32.715,-24.902,-38.086,0.000
1760229780.569,-45.898,-30.762,-21.484,-23.926,0.000
1760229780.573,-27.832,-43.457,-20.996,-31.738,0.000
1760229780.577,-14.648,-42.480,-14.648,-48.828,0.000
1760229780.580,-17.578,-46.387,-14.160,-42.969,0.000
1760229780.584,-43.945,-42.480,-24.902,-39.062,0.000
1760229780.588,-62.988,-28.320,-23.438,-25.879,0.000
1760229780.592,-58.105,-32.227,-26.367,-26.855,0.000
1760229780.596,-25.391,-35.156,-36.621,-51.270,0.000
1760229780.600,-38.574,-32.227,-34.668,-61.523,0.000
1760229780.604,-54.688,-32.715,-17.090,-35.156,0.000
1760229780.608,-6.348,-38.086,-12.695,-37.598,0.000
1760229780.612,-34.668,-39.551,-20.996,-37.598,0.000
1760229780.616,-75.684,-36.133,-22.461,-56.641,0.000
1760229780.620,-54.199,-34.180,-18.555,-71.777,0.000
1760229780.623,-47.363,-36.621,-24.902,-67.383,0.000
1760229780.627,-41.016,-37.109,-32.715,-55.664,0.000
1760229780.631,-46.387,-40.527,-29.785,-53.711,0.000
1760229780.635,-43.945,-43.457,-27.832,-62.012,0.000
1760229780.639,-52.734,-36.133,-24.414,-32.715,0.000
1760229780.643,-74.219,-27.344,-29.297,-44.434,0.000
1760229780.647,-53.223,-38.574,-44.434,-85.449,0.000
1760229780.651,-53.223,-50.781,-44.434,-60.059,0.000
1760229780.655,-50.781,-50.293,-35.645,-52.734,0.000
1760229780.659,-63.477,-48.828,-32.227,-75.684,0.000
1760229780.662,-38.574,-37.109,-27.832,-47.852,0.000
1760229780.666,-59.082,-32.715,-31.250,-47.852,0.000
1760229780.670,-78.125,-37.598,-30.273,-64.453,0.000
1760229780.674,-3.906,-32.715,-32.227,-40.039,0.000
1760229780.678,-29.297,-39.551,-37.598,-43.457,0.000
1760229780.682,-59.082,-51.758,-31.738,-53.223,0.000
1760229780.686,-24.414,-50.293,-27.344,-44.434,0.000
1760229780.690,-22.461,-51.270,-29.785,-36.133,0.000
1760229780.694,-56.641,-48.340,-27.832,-42.969,0.000
1760229780.698,-68.359,-42.969,-26.855,-53.711,0.000
1760229780.702,-42.480,-36.621,-23.438,-23.926,0.000
1760229780.705,-42.480,-36.133,-25.879,-22.949,0.000
1760229780.709,-19.043,-38.086,-27.832,-37.598,0.000
1760229780.713,10.254,-41.992,-23.438,-34.180,0.000
1760229780.717,-19.531,-42.969,-24.414,-22.949,0.000
1760229780.721,-41.504,-43.457,-25.391,-34.668,0.000
1760229780.725,-41.016,-45.410,-23.926,-27.832,0.000
1760229780.729,-26.855,-43.945,-27.344,-27.344,0.000
1760229780.733,-12.695,-39.551,-29.297,-31.250,0.000
1760229780.737,-5.371,-34.180,-21.973,-25.391,0.000
1760229780.741,-8.301,-35.156,-21.973,-29.297,0.000
1760229780.744,-35.645,-38.574,-27.832,-29.297,0.000
1760229780.748,-47.852,-41.992,-25.879,-39.062,0.000
1760229780.752,-32.715,-47.363,-23.926,-32.227,0.000
1760229780.756,-45.410,-43.457,-26.367,-39.551,0.000
1760229780.760,-35.645,-41.504,-27.344,-38.086,0.000
1760229780.764,4.395,-34.180,-24.902,-4.883,0.000
1760229780.768,14.648,-29.297,-26.367,-16.602,0.000
1760229780.772,1.953,-32.715,-26.367,-32.715,0.000
1760229780.776,-29.785,-33.691,-28.320,-23.438,0.000
1760229780.780,-21.973,-29.297,-26.367,-17.090,0.000
1760229780.784,-7.812,-27.832,-17.090,-24.414,0.000
1760229780.787,-14.648,-31.738,-16.113,-29.785,0.000
1760229780.791,-17.090,-38.574,-17.578,-19.531,0.000
1760229780.795,-20.996,-46.875,-16.113,-20.508,0.000
1760229780.799,-11.719,-41.016,-20.996,-41.016,0.000
1760229780.803,-19.043,-33.691,-29.297,-32.227,0.000
1760229780.807,-20.020,-33.691,-25.879,-41.992,0.000
1760229780.811,-1.465,-37.109,-20.020,-41.992,0.000
1760229780.815,-20.020,-41.504,-15.137,-39.062,0.000
1760229780.819,-45.410,-36.133,-16.602,-36.621,0.000
1760229780.823,-24.414,-30.273,-16.113,-7.324,0.000
1760229780.827,14.160,-32.715,-15.137,-22.949,0.000
1760229780.830,-28.320,-36.133,-20.020,-34.180,0.000
1760229780.834,-85.449,-35.156,-23.438,-35.156,0.000
1760229780.838,-59.570,-29.297,-28.320,-49.805,0.000
1760229780.842,-19.531,-23.438,-34.668,-52.246,0.000
1760229780.846,5.371,-22.461,-29.297,-46.387,0.000
1760229780.850,-14.160,-26.855,-19.043,-53.223,0.000
1760229780.854,-32.715,-32.715,-21.484,-34.668,0.000
1760229780.858,-22.949,-34.180,-26.855,-41.992,0.000
1760229780.862,-29.297,-43.945,-20.020,-53.711,0.000
1760229780.866,-41.504,-45.898,-20.996,-22.949,0.000
1760229780.869,-19.531,-31.250,-26.855,-18.066,0.000
1760229780.873,-36.133,-33.203,-24.902,-30.273,0.000
1760229780.877,-57.129,-37.598,-24.414,-40.527,0.000
1760229780.881,-33.691,-31.738,-24.414,-41.016,0.000
1760229780.885,-36.133,-30.762,-26.855,-31.250,0.000
1760229780.889,-27.344,-27.832,-30.273,-34.668,0.000
1760229780.893,-9.766,-27.344,-30.273,-14.648,0.000
1760229780.897,-34.668,-32.227,-29.785,-34.180,0.000
1760229780.901,-36.133,-33.691,-30.762,-38.086,0.000
1760229780.905,-13.184,-27.832,-22.949,-8.789,0.000
1760229780.909,-29.785,-33.203,-22.461,-25.879,0.000
1760229780.912,-20.996,-34.180,-24.902,-43.457,0.000
1760229780.916,-9.766,-23.926,-28.809,-56.152,0.000
1760229780.920,-39.062,-26.367,-32.227,-50.293,0.000
1760229780.924,-27.832,-32.227,-24.902,-37.598,0.000
1760229780.928,-8.789,-30.273,-24.902,-20.020,0.000
1760229780.932,-15.625,-33.203,-24.414,-23.438,0.000
1760229780.936,-35.156,-34.668,-26.855,-44.434,0.000
1760229780.940,-56.641,-35.645,-23.926,-54.199,0.000
1760229780.944,-50.781,-38.086,-20.996,-42.480,0.000
1760229780.948,-43.945,-35.156,-20.508,-41.504,0.000
1760229780.951,-25.391,-34.180,-26.367,-36.621,0.000
1760229780.955,-26.367,-41.504,-29.297,-20.996,0.000
1760229780.959,-23.438,-40.527,-19.043,-33.691,0.000
1760229780.963,-28.320,-39.062,-18.066,-44.434,0.000
1760229780.967,-32.715,-40.527,-22.461,-55.664,0.000
1760229780.971,-36.133,-34.668,-23.438,-55.176,0.000
1760229780.975,-29.297,-31.250,-24.414,-35.645,0.000
1760229780.979,-8.301,-24.414,-21.973,-29.785,0.000
1760229780.983,-35.156,-29.297,-15.625,-33.203,0.000
1760229780.987,-46.387,-32.715,-19.043,-33.203,0.000
1760229780.991,-36.621,-26.367,-18.555,-34.180,0.000
1760229780.994,-47.852,-30.762,-20.020,-42.969,0.000
1760229780.998,-41.992,-37.109,-28.809,-41.016,0.000
1760229781.002,-31.250,-32.715,-31.738,-39.551,0.000
1760229781.006,-16.602,-26.855,-28.320,-24.414,0.000
1760229781.010,-17.578,-20.020,-27.344,-22.461,0.000
1760229781.014,-16.602,-24.414,-24.414,-37.598,0.000
1760229781.018,2.930,-27.832,-25.879,-28.809,0.000
1760229781.022,-39.551,-22.949,-33.203,-42.480,0.000
1760229781.026,-52.734,-25.391,-27.832,-47.852,0.000
1760229781.030,-41.016,-24.902,-24.414,-40.527,0.000
1760229781.034,-42.969,-21.484,-26.367,-51.758,0.000
1760229781.037,-21.484,-21.484,-25.879,-46.387,0.000
1760229781.041,-12.695,-21.484,-29.785,-30.273,0.000
1760229781.045,-37.109,-26.367,-30.762,-43.945,0.000
1760229781.049,-26.855,-26.367,-25.391,-43.945,0.000
1760229781.053,17.578,-20.020,-26.855,-31.250,0.000
1760229781.057,-16.602,-20.996,-29.785,-62.012,0.000
1760229781.061,-43.457,-26.367,-28.809,-48.828,0.000
1760229781.065,-46.387,-25.391,-26.367,-31.250,0.000
1760229781.069,-51.758,-24.414,-26.367,-43.457,0.000
1760229781.073,-24.414,-23.926,-28.320,-33.691,0.000
1760229781.077,0.000,-27.344,-20.508,-23.438,0.000
1760229781.080,0.000,-33.203,-22.461,-36.133,0.000
1760229781.084,0.000,-28.320,-28.809,-33.203,0.000
1760229781.088,0.000,-20.996,-32.227,-30.762,0.000
1760229781.092,0.000,-23.926,-26.855,-50.293,0.000
1760229781.096,0.000,-26.855,-17.578,-25.879,0.000
1760229781.100,0.000,-22.461,-20.996,-33.203,0.000
1760229781.104,0.000,-21.484,-23.926,-50.781,0.000
1760229781.108,0.000,-22.949,-24.902,-39.062,0.000
1760229781.112,0.000,-17.578,-21.484,-39.551,0.000
1760229781.116,0.000,-20.508,-16.602,-31.738,0.000
1760229781.119,0.000,-27.344,-24.414,-37.598,0.000
1760229781.123,-12.695,-24.902,-32.715,-44.922,0.000
1760229781.127,-9.766,-24.902,-30.273,-36.621,0.000
1760229781.131,-7.324,-29.785,-20.020,-54.199,0.000
1760229781.135,-5.371,-29.297,-9.277,-59.082,0.000
1760229781.139,-11.719,-31.250,-10.254,-28.320,0.000
1760229781.143,-29.785,-34.180,-22.949,-25.879,0.000
1760229781.147,-10.254,-32.715,-24.902,-45.410,0.000
1760229781.151,-14.648,-27.344,-22.949,-25.879,0.000
1760229781.155,-34.180,-28.809,-31.250,-31.250,0.000
1760229781.158,-13.184,-34.668,-22.949,-46.875,0.000
1760229781.162,-10.254,-35.156,-18.555,-31.738,0.000
1760229781.166,-45.898,-35.645,-20.996,-57.129,0.000
1760229781.170,-43.457,-37.109,-20.020,-68.359,0.000
1760229781.174,-37.598,-38.086,-22.461,-51.270,0.000
1760229781.178,-27.344,-37.598,-22.949,-43.457,0.000
1760229781.182,-27.832,-38.086,-25.391,-38.574,0.000
1760229781.186,-24.414,-33.203,-24.902,-26.855,0.000
1760229781.190,-15.625,-27.344,-27.832,-20.996,0.000
1760229781.194,-17.578,-29.297,-27.832,-15.137,0.000
1760229781.197,-35.645,-29.785,-23.438,-28.809,0.000
1760229781.201,-34.668,-33.691,-19.531,-57.617,0.000
1760229781.205,-23.926,-33.691,-23.438,-54.199,0.000
1760229781.209,-35.156,-28.320,-27.832,-29.297,0.000
1760229781.213,-57.617,-33.203,-26.367,-37.598,0.000
1760229781.217,-18.066,-36.133,-21.484,-39.551,0.000
1760229781.221,-5.371,-36.133,-16.602,-20.020,0.000
1760229781.225,-30.762,-36.621,-20.508,-27.832,0.000
1760229781.229,-23.438,-31.738,-22.949,-43.457,0.000
1760229781.233,-15.625,-31.250,-23.926,-66.406,0.000
1760229781.237,-7.324,-27.832,-28.320,-42.480,0.000
1760229781.240,-29.297,-28.809,-31.250,-27.344,0.000
1760229781.244,-23.926,-30.273,-26.367,-28.320,0.000
1760229781.248,-23.438,-29.297,-31.250,-41.504,0.000
1760229781.252,-44.434,-30.762,-35.645,-32.715,0.000
1760229781.256,-20.996,-32.715,-29.297,-16.113,0.000
1760229781.260,-35.156,-30.762,-29.785,-40.039,0.000
1760229781.264,-39.062,-26.855,-26.855,-44.434,0.000
1760229781.268,-13.184,-25.879,-28.320,-55.664,0.000
1760229781.272,-2.930,-26.367,-30.273,-40.039,0.000
1760229781.276,-18.066,-26.855,-24.902,-36.621,0.000
1760229781.280,-27.344,-30.273,-30.273,-47.363,0.000
1760229781.283,-22.461,-34.668,-33.203,-34.180,0.000
1760229781.287,-41.504,-29.785,-31.738,-50.781,0.000
1760229781.291,-32.227,-30.762,-33.203,-55.176,0.000
1760229781.295,-11.719,-31.738,-31.250,-27.344,0.000
1760229781.299,-39.062,-26.855,-27.344,-17.090,0.000
1760229781.303,-41.016,-26.367,-26.855,-21.484,0.000
1760229781.307,-15.137,-23.926,-24.414,-28.809,0.000
1760229781.311,0.000,-29.297,-25.391,-39.551,0.000
1760229781.315,0.000,-35.156,-27.344,-45.410,0.000
1760229781.319,0.000,-31.738,-26.855,-29.297,0.000
1760229781.322,0.000,-32.715,-28.320,-26.855,0.000
1760229781.326,0.000,-34.180,-27.344,-39.551,0.000
1760229781.330,0.000,-36.621,-23.438,-38.574,0.000
1760229781.334,0.000,-44.922,-25.391,-35.156,0.000
1760229781.338,0.000,-43.457,-27.344,-28.320,0.000
1760229781.342,0.000,-31.250,-22.949,-38.086,0.000
1760229781.346,0.000,-33.203,-24.414,-46.387,0.000
1760229781.350,0.000,-31.738,-33.691,-55.176,0.000
1760229781.354,0.000,-32.715,-35.156,-49.316,0.000
1760229781.358,-45.898,-37.109,-22.461,-25.879,0.000
1760229781.362,-28.320,-32.227,-19.531,-5.371,0.000
1760229781.365,-13.184,-30.273,-30.273,-4.883,0.000
1760229781.369,-0.977,-32.227,-37.598,-37.109,0.000
1760229781.373,-18.066,-40.527,-27.832,-41.504,0.000
1760229781.377,-37.109,-37.109,-18.555,-22.949,0.000
1760229781.381,-14.648,-31.738,-29.785,-31.738,0.000
1760229781.385,1.465,-33.691,-34.668,-41.016,0.000
1760229781.389,-37.598,-34.180,-25.391,-23.926,0.000
1760229781.393,-34.668,-33.203,-21.973,-34.180,0.000
1760229781.397,-18.555,-34.180,-25.391,-39.551,0.000
1760229781.401,-34.668,-41.016,-28.320,-24.902,0.000
1760229781.405,-48.340,-40.527,-22.949,-25.879,0.000
1760229781.408,-38.086,-31.250,-23.926,-22.949,0.000
1760229781.412,-16.602,-29.785,-27.832,-37.598,0.000
1760229781.416,-15.625,-38.086,-24.902,-31.738,0.000
1760229781.420,-23.438,-41.016,-25.879,-25.879,0.000
1760229781.424,-20.996,-36.621,-23.438,-28.809,0.000
1760229781.428,-35.645,-39.551,-20.508,-29.785,0.000
1760229781.432,-64.453,-37.598,-20.508,-47.852,0.000
1760229781.436,-44.922,-36.621,-24.414,-57.129,0.000
1760229781.440,-21.484,-40.039,-25.391,-48.828,0.000
1760229781.444,4.395,-36.133,-29.785,-36.621,0.000
1760229781.447,-12.695,-29.297,-41.504,-42.969,0.000
1760229781.451,-41.992,-41.504,-24.902,-43.457,0.000
1760229781.455,-48.340,-54.688,-8.301,-19.531,0.000
1760229781.459,-42.480,-32.715,-26.367,-42.969,0.000
1760229781.463,-5.371,-18.066,-37.598,-55.176,0.000
1760229781.467,-30.762,-28.320,-35.156,-48.828,0.000
1760229781.471,-44.922,-31.250,-36.133,-32.715,0.000
1760229781.475,-21.973,-23.926,-37.109,-38.574,0.000
1760229781.479,-38.086,-20.508,-40.527,-60.547,0.000
1760229781.483,-51.758,-27.832,-45.410,-40.527,0.000
1760229781.487,-44.922,-32.227,-37.598,-45.410,0.000
1760229781.490,-20.020,-27.344,-30.273,-39.062,0.000
1760229781.494,-34.668,-22.461,-29.785,-39.062,0.000
1760229781.498,-53.711,-24.902,-25.879,-46.387,0.000
1760229781.502,-19.043,-32.227,-27.344,-41.016,0.000
1760229781.506,0.977,-39.551,-27.344,-55.664,0.000
1760229781.510,-36.133,-47.852,-26.855,-51.758,0.000
1760229781.514,-52.734,-36.133,-34.180,-44.434,0.000
1760229781.518,-59.082,-28.320,-38.086,-47.852,0.000
1760229781.522,-44.434,-32.227,-37.109,-48.828,0.000
1760229781.526,-25.879,-34.668,-33.691,-42.969,0.000
1760229781.530,-22.461,-35.156,-27.344,-42.480,0.000
1760229781.533,-29.785,-32.227,-31.250,-24.902,0.000
1760229781.537,-48.828,-30.273,-36.621,-45.410,0.000
1760229781.541,-39.551,-31.250,-36.133,-73.730,0.000
1760229781.545,-44.922,-35.156,-34.668,-52.246,0.000
1760229781.549,-30.762,-26.367,-26.855,-42.480,0.000
1760229781.553,-7.324,-18.066,-32.227,-36.621,0.000
1760229781.557,-1.953,-24.902,-34.668,-41.016,0.000
1760229781.561,-25.879,-34.180,-26.367,-47.852,0.000
1760229781.565,-42.480,-32.227,-31.250,-55.176,0.000
1760229781.569,-30.762,-32.227,-32.227,-66.406,0.000
1760229781.572,-33.203,-41.504,-28.809,-38.086,0.000
1760229781.576,-49.805,-38.574,-25.391,-47.363,0.000
1760229781.580,-46.387,-35.156,-15.137,-44.434,0.000
1760229781.584,-27.344,-37.109,-17.090,-33.203,0.000
1760229781.588,-13.184,-27.832,-22.461,-44.434,0.000
1760229781.592,-15.625,-30.273,-30.273,-53.711,0.000
1760229781.596,-41.016,-30.273,-35.645,-36.133,0.000
1760229781.600,-47.363,-35.156,-29.297,-34.180,0.000
1760229781.604,-31.738,-35.645,-25.391,-60.547,0.000
1760229781.608,-21.973,-27.344,-19.531,-29.297,0.000
1760229781.612,-30.273,-36.133,-20.996,-11.719,0.000
1760229781.615,-36.133,-40.039,-30.273,-20.508,0.000
1760229781.619,-44.922,-31.738,-36.133,-39.062,0.000
1760229781.623,-40.039,-29.297,-30.762,-58.105,0.000
1760229781.627,-26.855,-37.109,-26.367,-38.574,0.000
1760229781.631,-23.926,-41.504,-25.391,-27.344,0.000
1760229781.635,-40.527,-40.527,-25.879,-41.016,0.000
1760229781.639,-29.785,-44.434,-20.508,-10.254,0.000
1760229781.643,-27.344,-36.621,-26.855,-22.461,0.000
1760229781.647,-18.066,-19.531,-41.504,-76.660,0.000
1760229781.651,-30.762,-22.949,-29.785,-54.199,0.000
1760229781.654,-35.645,-37.109,-16.602,-40.039,0.000
1760229781.658,-39.551,-41.504,-23.438,-46.875,0.000
1760229781.662,-37.109,-28.320,-32.715,-58.105,0.000
1760229781.666,-31.250,-26.855,-29.785,-38.574,0.000
1760229781.670,-36.133,-33.691,-24.902,-17.578,0.000
1760229781.674,-7.324,-29.297,-27.832,-39.551,0.000
1760229781.678,-3.906,-31.738,-23.438,-51.270,0.000
1760229781.682,-34.180,-39.551,-20.996,-30.273,0.000
1760229781.686,-64.941,-33.691,-24.902,-52.734,0.000
1760229781.690,-38.574,-20.996,-23.438,-58.594,0.000
1760229781.694,-28.320,-27.344,-22.949,-35.156,0.000
1760229781.697,-51.758,-32.715,-21.973,-33.691,0.000
1760229781.701,-18.555,-32.227,-24.414,-38.086,0.000
1760229781.705,-1.953,-38.086,-26.367,-31.738,0.000
1760229781.709,-39.062,-43.457,-22.461,-26.367,0.000
1760229781.713,-37.598,-37.598,-23.438,-32.227,0.000
1760229781.717,-31.738,-20.996,-20.996,-33.691,0.000
1760229781.721,-34.668,-21.484,-16.113,-22.461,0.000
1760229781.725,-34.180,-28.809,-16.602,-16.602,0.000
1760229781.729,-17.090,-28.320,-21.973,-37.598,0.000
1760229781.733,-6.836,-32.227,-24.414,-41.016,0.000
1760229781.737,-13.184,-29.785,-24.902,-26.367,0.000
1760229781.740,-16.602,-30.273,-30.273,-34.180,0.000
1760229781.744,-37.598,-32.715,-28.809,-23.926,0.000
1760229781.748,-32.227,-27.344,-25.879,-21.973,0.000
1760229781.752,-20.996,-22.949,-31.250,-31.250,0.000
1760229781.756,-49.316,-29.785,-33.691,-20.996,0.000
1760229781.760,-49.805,-38.574,-22.949,-19.043,0.000
1760229781.764,-5.859,-24.902,-16.113,-16.113,0.000
1760229781.768,2.930,-15.137,-21.973,-22.949,0.000
1760229781.772,-22.461,-22.949,-22.461,-27.344,0.000
1760229781.776,-18.066,-28.809,-24.902,-17.090,0.000
1760229781.780,-10.742,-29.297,-25.391,-37.598,0.000
1760229781.783,-10.742,-27.832,-19.531,-30.273,0.000
1760229781.787,-23.926,-25.391,-22.949,-16.113,0.000
1760229781.791,-36.621,-26.855,-27.344,-36.133,0.000
1760229781.795,-41.992,-29.785,-30.762,-49.316,0.000
1760229781.799,-42.969,-30.762,-28.809,-41.016,0.000
1760229781.803,-35.645,-37.109,-25.879,-29.785,0.000
1760229781.807,-32.227,-37.598,-27.344,-34.668,0.000
1760229781.811,-19.531,-33.691,-30.273,-47.363,0.000
1760229781.815,-42.480,-37.109,-29.785,-60.059,0.000
1760229781.819,-19.043,-40.527,-26.855,-56.641,0.000
1760229781.822,-6.836,-36.621,-28.320,-46.387,0.000
1760229781.826,-69.336,-38.086,-27.832,-29.785,0.000
1760229781.830,-36.621,-38.574,-26.367,-43.457,0.000
1760229781.834,-41.504,-34.180,-33.203,-30.762,0.000
1760229781.838,-54.199,-32.227,-31.738,-16.602,0.000
1760229781.842,-22.949,-34.180,-20.996,-49.316,0.000
1760229781.846,-32.227,-37.598,-21.484,-52.734,0.000
1760229781.850,-29.297,-36.621,-25.391,-32.227,0.000
1760229781.854,-16.113,-39.062,-19.531,-22.949,0.000
1760229781.858,-11.719,-38.574,-24.902,-11.719,0.000
1760229781.862,-15.625,-37.598,-30.762,-37.109,0.000
1760229781.865,-44.434,-38.086,-31.738,-62.988,0.000
1760229781.869,-30.273,-27.344,-30.762,-38.086,0.000
1760229781.873,-2.930,-20.508,-19.531,-37.598,0.000
1760229781.877,-0.977,-28.809,-21.973,-37.598,0.000
1760229781.881,-36.133,-31.250,-25.879,-20.508,0.000
1760229781.885,-59.082,-31.738,-19.043,-47.363,0.000
1760229781.889,-40.039,-31.250,-18.066,-40.039,0.000
1760229781.893,-17.090,-30.762,-20.020,-13.184,0.000
1760229781.897,-17.578,-37.109,-18.066,-25.879,0.000
1760229781.901,-47.852,-36.133,-22.461,-13.672,0.000
1760229781.904,-37.598,-27.344,-29.297,-39.062,0.000
1760229781.908,-11.230,-30.273,-26.367,-50.293,0.000
1760229781.912,-0.488,-34.668,-20.508,-25.391,0.000
1760229781.916,-25.879,-34.180,-18.066,-37.109,0.000
1760229781.920,-44.434,-35.645,-22.461,-48.340,0.000
1760229781.924,-41.992,-35.645,-29.297,-58.105,0.000
1760229781.928,-28.809,-33.203,-21.484,-51.758,0.000
1760229781.932,-27.344,-35.156,-18.066,-30.273,0.000
1760229781.936,-39.062,-31.738,-27.832,-35.156,0.000
1760229781.940,-33.691,-33.203,-24.414,-44.922,0.000
1760229781.944,-5.371,-35.645,-17.090,-36.133,0.000
1760229781.947,-18.066,-31.250,-20.996,-25.879,0.000
1760229781.951,-36.133,-34.668,-25.391,-13.184,0.000
1760229781.955,-23.438,-31.250,-23.926,-38.574,0.000
1760229781.959,-23.438,-28.320,-28.809,-59.082,0.000
1760229781.963,-41.016,-38.086,-32.227,-39.551,0.000
1760229781.967,-39.062,-45.898,-27.832,-29.297,0.000
1760229781.971,-18.066,-41.504,-25.391,-27.832,0.000
1760229781.975,-25.391,-35.645,-24.414,-40.527,0.000
1760229781.979,-37.598,-32.227,-28.320,-38.086,0.000
1760229781.983,-21.484,-29.785,-29.297,-30.762,0.000
1760229781.986,-20.020,-28.809,-30.273,-30.762,0.000
1760229781.990,-19.531,-26.855,-28.809,-19.043,0.000
1760229781.994,-6.348,-24.902,-25.879,-29.297,0.000
1760229781.998,-44.434,-27.344,-26.855,-41.992,0.000
1760229782.002,-46.875,-36.621,-22.949,-38.086,0.000
1760229782.006,-30.762,-40.039,-21.484,-31.250,0.000
1760229782.010,-24.414,-31.250,-25.391,-29.785,0.000
1760229782.014,-6.348,-31.250,-27.344,-38.086,0.000
1760229782.018,-9.277,-33.203,-26.855,-39.551,0.000
1760229782.022,-41.992,-28.809,-23.926,-16.113,0.000
1760229782.026,-46.875,-29.297,-22.461,-13.184,0.000
1760229782.029,-26.855,-39.062,-21.973,-40.039,0.000
1760229782.033,-40.039,-46.387,-20.508,-52.246,0.000
1760229782.037,-37.109,-46.387,-20.508,-48.340,0.000
1760229782.041,-36.621,-41.992,-24.414,-41.992,0.000
1760229782.045,-50.293,-40.039,-28.320,-44.434,0.000
1760229782.049,-40.039,-38.574,-28.320,-45.898,0.000
1760229782.053,-27.832,-36.621,-31.738,-35.645,0.000
1760229782.057,-39.551,-38.086,-26.367,-32.715,0.000
1760229782.061,-35.156,-38.086,-28.320,-22.461,0.000
1760229782.065,-22.461,-38.574,-35.156,-18.555,0.000
1760229782.069,-8.301,-37.109,-25.879,-45.410,0.000
1760229782.072,-34.180,-39.062,-18.555,-38.086,0.000
1760229782.076,-48.340,-43.457,-22.461,-31.738,0.000
