timestamps,TP9,AF7,AF8,TP10,Right AUX
1760221468.028,20.020,-0.488,-12.207,28.809,0.000
1760221468.032,19.043,-3.906,-19.043,11.230,0.000
1760221468.036,-6.836,-3.906,-26.855,-17.090,0.000
1760221468.040,-0.977,0.488,-17.578,-1.953,0.000
1760221468.044,20.996,0.488,-14.160,16.602,0.000
1760221468.048,10.742,-10.254,-14.648,9.766,0.000
1760221468.052,14.648,-9.766,-9.277,-5.859,0.000
1760221468.056,43.457,0.977,-8.789,-5.859,0.000
1760221468.059,35.156,0.488,-10.254,20.508,0.000
1760221468.063,1.465,-11.719,-11.230,22.949,0.000
1760221468.067,-21.973,-3.418,-11.230,-14.648,0.000
1760221468.071,-19.531,1.953,-10.254,-20.508,0.000
1760221468.075,0.488,-2.441,-15.625,-4.395,0.000
1760221468.079,-0.977,3.418,-11.719,-6.836,0.000
1760221468.083,1.953,3.418,-12.207,-22.461,0.000
1760221468.087,15.137,-3.906,-13.672,-17.090,0.000
1760221468.091,12.695,-6.836,-15.625,3.906,0.000
1760221468.095,4.883,-3.418,-18.066,11.719,0.000
1760221468.099,-34.180,-7.324,-14.648,-2.930,0.000
1760221468.102,-32.715,-6.836,-13.672,4.395,0.000
1760221468.106,20.996,-9.277,-15.137,19.043,0.000
1760221468.110,34.180,-13.184,-22.461,0.000,0.000
1760221468.114,-6.836,-9.766,-23.438,-24.902,0.000
1760221468.118,-20.996,-6.348,-24.414,-25.391,0.000
1760221468.122,-21.484,-5.371,-22.461,-15.625,0.000
1760221468.126,33.691,-1.953,-16.113,-1.465,0.000
1760221468.130,56.641,8.789,-18.555,-2.930,0.000
1760221468.134,-15.625,3.418,-20.020,-12.207,0.000
1760221468.138,-39.062,-10.742,-16.113,2.930,0.000
1760221468.142,-24.414,-12.207,-10.742,14.160,0.000
1760221468.145,-13.672,-8.789,-14.648,-3.906,0.000
1760221468.149,-4.395,-8.789,-21.973,-6.348,0.000
1760221468.153,7.324,-5.859,-23.438,5.859,0.000
1760221468.157,-5.859,4.395,-16.113,6.836,0.000
1760221468.161,2.930,4.883,-9.277,8.301,0.000
1760221468.165,24.414,1.953,-14.648,-4.395,0.000
1760221468.169,31.738,5.371,-14.648,1.953,0.000
1760221468.173,1.953,3.418,-16.113,1.465,0.000
1760221468.177,5.859,5.371,-13.672,8.789,0.000
1760221468.181,0.488,5.371,-11.719,7.324,0.000
1760221468.184,-30.762,-0.977,-14.648,-5.371,0.000
1760221468.188,-4.883,4.883,-17.090,9.277,0.000
1760221468.192,18.066,8.789,-19.531,17.090,0.000
1760221468.196,26.367,1.465,-25.391,12.207,0.000
1760221468.200,18.555,3.418,-27.344,-2.441,0.000
1760221468.204,-12.207,3.418,-22.949,-17.090,0.000
1760221468.208,-13.184,-9.766,-21.484,3.906,0.000
1760221468.212,6.836,-11.230,-19.531,17.090,0.000
1760221468.216,6.836,-7.324,-17.578,-0.977,0.000
1760221468.220,-14.648,-6.348,-17.090,-13.184,0.000
1760221468.224,2.930,-9.277,-21.973,-1.465,0.000
1760221468.227,30.273,-10.742,-20.996,7.812,0.000
1760221468.231,12.695,-2.930,-20.020,6.348,0.000
1760221468.235,-15.137,-7.324,-18.555,-8.789,0.000
1760221468.239,-25.391,-16.113,-17.578,-11.719,0.000
1760221468.243,-8.301,-11.230,-22.461,12.207,0.000
1760221468.247,6.836,0.000,-27.344,-15.137,0.000
1760221468.251,1.953,3.906,-24.414,-35.645,0.000
1760221468.255,-22.461,0.488,-20.996,-5.859,0.000
1760221468.259,-5.371,-4.395,-25.391,23.438,0.000
1760221468.263,18.066,-3.418,-25.879,-1.465,0.000
1760221468.266,5.859,4.883,-20.996,-19.531,0.000
1760221468.270,4.395,-6.348,-22.949,-0.488,0.000
1760221468.274,17.578,-17.578,-26.367,16.113,0.000
1760221468.278,5.859,-23.438,-22.461,18.066,0.000
1760221468.282,-26.367,-24.414,-23.438,-1.465,0.000
1760221468.286,-12.207,-14.160,-26.855,-2.441,0.000
1760221468.290,-1.953,-15.625,-27.344,-0.977,0.000
1760221468.294,0.000,-6.836,-25.879,1.953,0.000
1760221468.298,35.156,1.465,-20.508,8.789,0.000
1760221468.302,10.254,-7.812,-22.461,-15.137,0.000
1760221468.305,-12.207,-8.789,-20.996,-20.508,0.000
1760221468.309,11.230,-7.324,-15.137,0.488,0.000
1760221468.313,-31.250,-12.207,-13.672,4.395,0.000
1760221468.317,-41.504,-6.348,-10.742,-2.441,0.000
1760221468.321,-14.648,-4.883,-9.766,-14.648,0.000
1760221468.325,13.184,-0.977,-12.695,1.465,0.000
1760221468.329,30.762,1.465,-14.160,9.277,0.000
1760221468.333,17.090,-11.719,-17.578,-8.789,0.000
1760221468.337,-9.277,-13.672,-20.996,-18.066,0.000
1760221468.341,20.020,-8.789,-20.508,3.906,0.000
1760221468.345,36.621,-5.371,-16.113,18.066,0.000
1760221468.348,9.277,-5.371,-20.020,-5.859,0.000
1760221468.352,-9.277,-5.859,-19.531,-20.996,0.000
1760221468.356,-19.043,-5.371,-13.672,-6.836,0.000
1760221468.360,8.789,-10.742,-8.789,13.672,0.000
1760221468.364,9.766,-10.742,-10.742,0.488,0.000
1760221468.368,-11.230,-5.859,-18.066,-7.324,0.000
1760221468.372,8.789,-2.930,-18.066,7.324,0.000
1760221468.376,37.598,-7.324,-20.996,25.879,0.000
1760221468.380,38.086,0.977,-18.555,14.160,0.000
1760221468.384,12.207,11.230,-17.578,-14.648,0.000
1760221468.388,8.301,2.930,-22.461,-19.043,0.000
1760221468.391,24.902,-1.953,-26.367,9.277,0.000
1760221468.395,4.883,-8.789,-26.855,12.207,0.000
1760221468.399,-4.883,-25.391,-23.926,0.488,0.000
1760221468.403,18.066,-10.254,-26.367,-2.441,0.000
1760221468.407,38.086,11.230,-29.785,-2.930,0.000
1760221468.411,16.602,10.742,-33.203,3.418,0.000
1760221468.415,16.113,15.137,-42.480,7.324,0.000
1760221468.419,31.250,12.695,-44.922,14.648,0.000
1760221468.423,24.902,5.859,-45.410,24.414,0.000
1760221468.427,64.941,12.695,-57.129,31.738,0.000
1760221468.431,75.684,16.602,-63.477,23.438,0.000
1760221468.434,31.738,11.230,-54.199,28.320,0.000
1760221468.438,23.926,12.207,-45.898,39.551,0.000
1760221468.442,43.457,20.508,-42.969,41.504,0.000
1760221468.446,41.016,20.020,-35.645,30.273,0.000
1760221468.450,17.578,17.090,-29.297,10.254,0.000
1760221468.454,25.879,17.090,-29.785,6.348,0.000
1760221468.458,31.738,13.672,-27.832,18.555,0.000
1760221468.462,27.832,12.695,-22.949,21.484,0.000
1760221468.466,36.133,8.789,-25.879,-2.441,0.000
1760221468.470,16.113,6.348,-27.832,-11.719,0.000
1760221468.474,-3.906,12.695,-21.973,-3.418,0.000
1760221468.477,13.672,21.484,-9.766,8.789,0.000
1760221468.481,21.973,17.090,-7.324,23.926,0.000
1760221468.485,55.664,25.391,0.488,14.160,0.000
1760221468.489,35.156,47.852,19.531,0.977,0.000
1760221468.493,-19.531,42.480,9.277,5.371,0.000
1760221468.497,-9.766,22.461,5.859,-12.207,0.000
1760221468.501,-33.691,10.742,25.391,-41.016,0.000
1760221468.505,-46.875,20.020,39.551,-41.504,0.000
1760221468.509,-27.832,18.555,28.320,-24.414,0.000
1760221468.513,-36.133,21.973,41.992,-33.203,0.000
1760221468.517,-73.730,40.039,59.082,-91.309,0.000
1760221468.520,-128.418,53.223,51.758,-155.273,0.000
1760221468.524,-151.367,71.777,73.730,-159.668,0.000
1760221468.528,-134.277,85.449,84.473,-150.879,0.000
1760221468.532,-146.973,80.078,81.543,-186.035,0.000
1760221468.536,-187.500,95.215,84.473,-206.543,0.000
1760221468.540,-207.031,105.957,83.984,-185.059,0.000
1760221468.544,-192.383,99.121,89.844,-172.363,0.000
1760221468.548,-197.754,112.305,83.496,-198.242,0.000
1760221468.552,-187.500,127.930,71.777,-204.590,0.000
1760221468.556,-135.742,124.512,73.242,-166.016,0.000
1760221468.559,-95.703,110.352,71.777,-131.348,0.000
1760221468.563,-89.844,94.727,66.406,-121.582,0.000
1760221468.567,-94.238,83.984,58.105,-123.047,0.000
1760221468.571,-94.727,75.684,41.992,-111.328,0.000
1760221468.575,-80.078,65.430,27.832,-63.477,0.000
1760221468.579,-50.781,56.152,25.391,-40.527,0.000
1760221468.583,-36.621,45.410,20.508,-48.340,0.000
1760221468.587,-37.109,28.809,10.254,-28.320,0.000
1760221468.591,7.812,20.020,-0.488,-5.371,0.000
1760221468.595,67.871,23.926,-9.277,4.395,0.000
1760221468.599,43.457,13.672,-20.020,8.789,0.000
1760221468.602,-4.883,-0.488,-28.809,16.602,0.000
1760221468.606,46.875,-8.301,-27.344,29.785,0.000
1760221468.610,85.449,-13.672,-27.344,55.176,0.000
1760221468.614,54.199,-15.625,-37.598,50.781,0.000
1760221468.618,23.926,-19.531,-44.922,41.504,0.000
1760221468.622,45.410,-15.625,-38.086,44.922,0.000
1760221468.626,89.355,-15.625,-37.598,75.195,0.000
1760221468.630,87.402,-22.461,-41.016,92.773,0.000
1760221468.634,67.871,-16.113,-42.969,65.430,0.000
1760221468.638,87.402,-19.531,-49.316,63.477,0.000
1760221468.642,105.957,-27.344,-45.898,93.750,0.000
1760221468.645,99.121,-22.949,-45.410,98.633,0.000
1760221468.649,90.820,-28.809,-47.363,80.078,0.000
1760221468.653,77.148,-29.785,-43.457,73.242,0.000
1760221468.657,84.473,-26.855,-39.551,96.680,0.000
1760221468.661,108.887,-38.574,-40.527,127.930,0.000
1760221468.665,119.141,-38.574,-48.340,96.680,0.000
1760221468.669,109.375,-30.273,-50.293,59.082,0.000
1760221468.673,106.934,-26.855,-50.293,81.543,0.000
1760221468.677,95.703,-28.320,-50.293,100.586,0.000
1760221468.681,66.895,-28.320,-45.410,76.172,0.000
1760221468.684,75.195,-26.367,-45.898,61.523,0.000
1760221468.688,91.797,-29.297,-44.434,82.031,0.000
1760221468.692,110.352,-27.832,-45.410,106.934,0.000
1760221468.696,102.051,-29.297,-39.551,95.215,0.000
1760221468.700,62.012,-28.809,-35.645,75.684,0.000
1760221468.704,72.754,-28.809,-42.480,83.984,0.000
1760221468.708,106.445,-33.691,-43.457,103.027,0.000
1760221468.712,90.820,-20.996,-41.992,83.008,0.000
1760221468.716,88.867,-15.625,-41.504,59.570,0.000
1760221468.720,108.398,-20.508,-41.016,75.684,0.000
1760221468.723,68.359,-18.066,-41.016,97.656,0.000
1760221468.727,66.406,-17.090,-34.668,99.121,0.000
1760221468.731,93.262,-11.719,-34.668,88.379,0.000
1760221468.735,78.125,-9.766,-38.574,67.383,0.000
1760221468.739,65.430,-16.113,-36.621,84.961,0.000
1760221468.743,58.594,-15.625,-37.598,91.797,0.000
1760221468.747,70.801,-17.090,-39.062,60.547,0.000
1760221468.751,82.520,-18.066,-36.621,54.688,0.000
1760221468.755,47.852,-19.043,-34.668,47.852,0.000
1760221468.759,49.316,-19.043,-30.762,55.176,0.000
1760221468.763,78.613,-8.789,-22.949,64.453,0.000
1760221468.766,62.988,-8.789,-20.020,48.340,0.000
1760221468.770,46.875,-13.672,-21.973,38.086,0.000
1760221468.774,71.777,-6.836,-20.020,51.758,0.000
1760221468.778,85.449,-2.930,-21.484,49.316,0.000
1760221468.782,65.918,-8.301,-25.391,34.180,0.000
1760221468.786,46.387,-3.906,-23.926,37.598,0.000
1760221468.790,40.039,4.883,-28.320,36.621,0.000
1760221468.794,41.016,1.465,-32.227,35.156,0.000
1760221468.798,41.992,-0.488,-34.180,17.578,0.000
1760221468.802,38.574,-7.812,-37.598,12.695,0.000
1760221468.806,21.484,-8.789,-34.668,23.438,0.000
1760221468.809,21.973,-8.789,-35.645,35.156,0.000
1760221468.813,58.594,-15.625,-36.133,30.762,0.000
1760221468.817,39.062,-5.859,-33.691,5.371,0.000
1760221468.821,10.742,-0.977,-32.227,18.066,0.000
1760221468.825,36.133,-3.418,-30.273,39.062,0.000
1760221468.829,30.273,-2.930,-30.762,39.551,0.000
1760221468.833,26.855,2.441,-29.297,21.973,0.000
1760221468.837,21.484,-0.488,-33.203,7.812,0.000
1760221468.841,10.254,-13.672,-32.715,27.832,0.000
1760221468.845,32.227,-16.602,-27.344,40.039,0.000
1760221468.849,20.508,-12.695,-28.320,17.578,0.000
1760221468.852,9.766,-12.695,-25.391,2.930,0.000
1760221468.856,22.461,-22.461,-29.785,10.742,0.000
1760221468.860,22.949,-20.508,-32.227,13.672,0.000
1760221468.864,11.719,-7.812,-27.832,-11.230,0.000
1760221468.868,5.859,-2.930,-24.414,-3.906,0.000
1760221468.872,57.617,-9.766,-27.832,16.113,0.000
1760221468.876,61.035,-10.742,-25.879,30.762,0.000
1760221468.880,-24.902,-5.371,-18.066,18.555,0.000
1760221468.884,-27.344,-9.766,-15.137,1.465,0.000
1760221468.888,6.348,-13.672,-18.066,13.672,0.000
1760221468.891,22.949,-11.719,-21.973,30.762,0.000
1760221468.895,20.020,-10.254,-20.020,9.277,0.000
1760221468.899,26.855,-12.207,-27.344,-11.230,0.000
1760221468.903,62.500,-2.441,-32.227,-4.883,0.000
1760221468.907,19.531,8.301,-24.902,1.465,0.000
1760221468.911,-35.156,-0.977,-17.578,25.391,0.000
1760221468.915,-29.785,-9.277,-14.160,12.695,0.000
1760221468.919,-19.043,-8.301,-17.090,-14.648,0.000
1760221468.923,-4.883,-6.348,-23.438,-0.488,0.000
1760221468.927,13.184,-4.883,-22.461,19.531,0.000
1760221468.931,35.156,-6.836,-17.090,15.137,0.000
1760221468.934,12.207,-7.324,-22.461,7.324,0.000
1760221468.938,-6.348,-9.277,-22.461,3.418,0.000
1760221468.942,25.879,-9.766,-15.625,16.602,0.000
1760221468.946,19.531,-11.719,-17.578,26.855,0.000
1760221468.950,-14.648,-16.602,-16.113,17.578,0.000
1760221468.954,-5.859,-13.672,-12.207,0.000,0.000
1760221468.958,16.113,-6.836,-10.742,17.578,0.000
1760221468.962,28.809,0.000,-5.371,25.879,0.000
1760221468.966,36.133,-2.930,-10.254,-0.488,0.000
1760221468.970,8.301,-0.977,-16.113,-8.789,0.000
1760221468.974,-3.906,3.906,-16.113,6.348,0.000
1760221468.977,13.672,0.977,-16.113,20.020,0.000
1760221468.981,-7.324,2.930,-14.648,9.277,0.000
1760221468.985,-2.930,-1.953,-14.648,-10.254,0.000
1760221468.989,39.062,-10.742,-11.230,6.836,0.000
1760221468.993,31.250,-14.160,-8.789,33.203,0.000
1760221468.997,-12.695,-11.719,-11.230,5.371,0.000
1760221469.001,-22.461,-9.766,-8.301,-20.508,0.000
1760221469.005,19.043,-9.766,-8.789,-4.883,0.000
1760221469.009,50.781,-5.371,-10.742,0.488,0.000
1760221469.013,20.020,4.883,-6.836,1.465,0.000
1760221469.016,-4.883,4.395,-7.812,10.254,0.000
1760221469.020,-8.301,-2.441,-10.742,-7.812,0.000
1760221469.024,8.301,-8.789,-10.742,10.742,0.000
1760221469.028,23.926,-9.277,-13.672,21.484,0.000
1760221469.032,10.742,-10.254,-19.531,-4.883,0.000
1760221469.036,38.086,-16.602,-20.020,21.973,0.000
1760221469.040,35.156,-17.090,-11.719,38.086,0.000
1760221469.044,25.879,-12.695,-1.953,5.859,0.000
1760221469.048,16.602,-6.348,-3.906,-1.465,0.000
1760221469.052,-20.508,-11.230,-6.348,-5.859,0.000
1760221469.055,-1.953,-19.043,-9.277,-7.324,0.000
1760221469.059,3.906,-18.066,-9.277,6.836,0.000
1760221469.063,-16.602,-18.555,-9.277,4.883,0.000
1760221469.067,-23.926,-20.508,-11.230,-6.348,0.000
1760221469.071,-8.789,-21.973,-11.719,-6.348,0.000
1760221469.075,43.457,-20.996,-8.301,18.555,0.000
1760221469.079,34.180,-17.578,-9.766,22.461,0.000
1760221469.083,-1.953,-17.090,-22.461,16.113,0.000
1760221469.087,0.488,-16.602,-21.484,0.977,0.000
1760221469.091,2.930,-8.301,-14.648,-2.930,0.000
1760221469.095,33.691,-4.395,-10.742,11.230,0.000
1760221469.098,15.625,-4.883,-7.324,-2.441,0.000
1760221469.102,-15.137,-1.953,-7.812,-10.254,0.000
1760221469.106,23.438,-4.883,-5.371,12.207,0.000
1760221469.110,30.762,-3.906,-2.930,36.133,0.000
1760221469.114,7.324,-3.418,-3.906,23.926,0.000
1760221469.118,25.391,-4.883,-3.906,11.230,0.000
1760221469.122,51.758,-2.930,-4.883,14.648,0.000
1760221469.126,35.156,-8.301,-2.930,29.785,0.000
1760221469.130,-6.348,-9.277,0.977,28.809,0.000
1760221469.134,-1.953,-5.371,-1.465,6.348,0.000
1760221469.138,-1.953,-4.395,-1.465,-9.277,0.000
1760221469.141,16.602,-7.324,-2.930,4.883,0.000
1760221469.145,23.926,-4.395,-1.953,5.859,0.000
1760221469.149,-8.301,4.883,0.000,-6.836,0.000
1760221469.153,-5.859,3.418,-2.441,-4.883,0.000
1760221469.157,16.602,3.418,-1.465,5.859,0.000
1760221469.161,34.180,3.418,1.465,24.414,0.000
1760221469.165,48.828,-11.230,-4.395,11.230,0.000
1760221469.169,19.043,-12.695,-3.906,9.277,0.000
1760221469.173,-2.930,-4.883,-3.906,16.113,0.000
1760221469.177,22.949,-2.441,-8.789,10.254,0.000
1760221469.180,8.789,-0.488,-7.324,-1.953,0.000
1760221469.184,15.625,-5.859,-12.695,-5.371,0.000
1760221469.188,23.438,-7.812,-17.090,8.789,0.000
1760221469.192,-7.324,-2.441,-8.789,3.906,0.000
1760221469.196,20.996,5.371,-8.789,-11.719,0.000
1760221469.200,11.230,8.301,-13.184,-20.996,0.000
1760221469.204,-20.508,-1.953,-9.277,-12.695,0.000
1760221469.208,-3.906,-10.254,-11.719,10.742,0.000
1760221469.212,-2.930,-6.836,-19.043,21.484,0.000
1760221469.216,9.277,-5.371,-15.625,-5.859,0.000
1760221469.220,25.879,-10.254,-19.043,-20.020,0.000
1760221469.223,3.906,-8.789,-16.113,-9.277,0.000
1760221469.227,9.766,-3.906,-9.766,1.953,0.000
1760221469.231,25.391,-5.371,-11.719,10.742,0.000
1760221469.235,-3.418,-11.719,-13.184,-9.766,0.000
1760221469.239,-13.672,-7.812,-16.113,-11.230,0.000
1760221469.243,5.859,1.465,-15.625,21.484,0.000
1760221469.247,7.324,-2.930,-8.301,5.371,0.000
1760221469.251,-2.441,-2.441,-3.906,-20.996,0.000
1760221469.255,39.062,3.418,-5.859,-15.137,0.000
1760221469.259,47.363,2.441,-7.324,5.371,0.000
1760221469.263,-5.859,-1.953,-10.254,1.465,0.000
1760221469.266,-12.207,-3.906,-14.648,-4.395,0.000
1760221469.270,-11.230,2.441,-18.066,-4.395,0.000
1760221469.274,13.672,10.254,-16.602,8.301,0.000
1760221469.278,38.086,6.836,-15.625,23.438,0.000
1760221469.282,35.156,6.348,-13.184,2.441,0.000
1760221469.286,18.555,9.766,-12.695,-4.395,0.000
1760221469.290,11.230,7.324,-7.324,21.973,0.000
1760221469.294,30.273,2.441,-9.277,22.461,0.000
1760221469.298,6.348,-1.953,-11.719,-24.414,0.000
1760221469.302,-11.230,-7.812,-5.371,-26.855,0.000
1760221469.306,14.648,-11.230,-6.836,3.906,0.000
1760221469.309,24.414,0.000,-8.789,11.230,0.000
1760221469.313,0.000,11.230,-11.719,0.488,0.000
1760221469.317,6.348,9.766,-13.672,-6.836,0.000
1760221469.321,17.578,5.859,-13.184,-1.465,0.000
1760221469.325,16.602,5.859,-5.859,14.160,0.000
1760221469.329,1.465,9.277,-2.441,-0.977,0.000
1760221469.333,15.625,2.930,-4.883,-16.602,0.000
1760221469.337,1.953,6.348,-12.695,-11.719,0.000
1760221469.341,-20.508,8.301,-13.184,5.859,0.000
1760221469.345,10.254,8.789,-0.977,11.230,0.000
1760221469.348,22.949,10.742,-1.953,-5.859,0.000
1760221469.352,1.953,0.488,-13.184,-2.441,0.000
1760221469.356,-14.648,-0.977,-17.578,5.859,0.000
1760221469.360,-3.906,5.859,-8.789,16.602,0.000
1760221469.364,10.254,7.324,-5.371,21.973,0.000
1760221469.368,16.113,2.441,-13.672,3.906,0.000
1760221469.372,5.859,6.348,-14.648,-1.953,0.000
1760221469.376,11.230,4.883,-5.859,8.789,0.000
1760221469.380,-2.441,-2.441,-0.977,18.066,0.000
1760221469.384,-18.066,2.930,0.488,11.719,0.000
1760221469.388,-7.324,11.719,-4.395,-10.254,0.000
1760221469.391,22.461,13.184,-12.695,12.207,0.000
1760221469.395,60.547,-1.953,-14.648,21.484,0.000
1760221469.399,32.227,-11.719,-15.137,-8.789,0.000
1760221469.403,-25.391,-7.324,-18.066,-13.672,0.000
1760221469.407,-0.488,-11.719,-20.020,3.906,0.000
1760221469.411,45.898,-12.207,-17.090,18.555,0.000
1760221469.415,1.465,-6.348,-7.812,7.812,0.000
1760221469.419,-48.340,-5.859,-10.742,-12.695,0.000
1760221469.423,-17.578,-6.348,-20.996,0.488,0.000
1760221469.427,15.625,-5.371,-22.461,19.531,0.000
1760221469.430,2.441,-6.348,-12.695,4.883,0.000
1760221469.434,-13.184,-5.371,-11.230,-7.812,0.000
1760221469.438,-2.930,-1.953,-17.090,0.000,0.000
1760221469.442,8.301,1.465,-16.113,20.508,0.000
1760221469.446,14.648,-2.930,-18.555,8.301,0.000
1760221469.450,10.742,-12.207,-24.414,-10.254,0.000
1760221469.454,11.719,-7.812,-21.973,-6.348,0.000
1760221469.458,30.273,-11.719,-16.113,9.766,0.000
1760221469.462,-29.297,-16.113,-19.043,-5.859,0.000
1760221469.466,-53.711,-9.277,-22.461,-25.879,0.000
1760221469.469,-14.160,-14.160,-22.461,-12.695,0.000
1760221469.473,-2.441,-11.230,-19.043,15.625,0.000
1760221469.477,8.789,-6.348,-13.672,31.738,0.000
1760221469.481,17.090,-6.348,-12.207,-7.812,0.000
1760221469.485,2.441,-2.930,-15.137,-23.926,0.000
1760221469.489,-15.625,-10.742,-13.184,-1.953,0.000
1760221469.493,4.883,-20.020,-11.719,4.883,0.000
1760221469.497,-12.695,-17.578,-14.160,-19.531,0.000
1760221469.501,-36.621,-16.602,-10.254,-5.859,0.000
1760221469.505,-12.207,-14.160,-8.789,20.508,0.000
1760221469.509,10.742,-4.883,-7.324,15.137,0.000
1760221469.512,12.695,-10.742,-6.348,9.277,0.000
1760221469.516,7.324,-19.043,-7.812,12.695,0.000
1760221469.520,6.348,-14.160,-6.836,-3.418,0.000
1760221469.524,17.578,-14.648,-10.742,0.000,0.000
1760221469.528,0.488,-18.066,-7.324,25.391,0.000
1760221469.532,-17.578,-16.113,-11.719,-7.812,0.000
1760221469.536,1.953,-10.742,-17.090,-29.297,0.000
1760221469.540,25.391,-4.395,-9.766,-4.883,0.000
1760221469.544,-0.977,-13.672,-8.789,15.625,0.000
1760221469.548,-24.902,-21.484,-14.160,0.488,0.000
1760221469.552,-22.949,-15.137,-9.766,-10.254,0.000
1760221469.555,-24.902,-2.930,-4.395,-4.883,0.000
1760221469.559,2.441,-0.488,0.000,14.160,0.000
1760221469.563,12.207,-13.184,-0.977,14.648,0.000
1760221469.567,4.395,-8.789,-3.418,2.441,0.000
1760221469.571,-8.301,-4.883,-3.906,5.859,0.000
1760221469.575,-7.812,-11.230,-9.277,18.555,0.000
1760221469.579,18.555,-7.324,-6.836,21.973,0.000
1760221469.583,12.695,-3.418,-5.859,-2.930,0.000
1760221469.587,-4.883,-5.859,-11.719,-11.230,0.000
1760221469.591,29.785,-9.277,-11.719,10.254,0.000
1760221469.595,41.992,-10.254,-17.090,13.184,0.000
1760221469.598,-9.277,-10.254,-21.484,-13.184,0.000
1760221469.602,-41.992,-17.090,-19.043,-25.391,0.000
1760221469.606,22.461,-21.484,-17.090,9.766,0.000
1760221469.610,59.570,-19.043,-14.160,35.645,0.000
1760221469.614,-29.297,-13.184,-11.719,3.906,0.000
1760221469.618,-49.805,-11.230,-13.672,-25.879,0.000
1760221469.622,-7.812,-19.043,-15.137,-14.648,0.000
1760221469.626,36.621,-15.137,-10.254,19.043,0.000
1760221469.630,4.395,4.395,-12.207,3.906,0.000
1760221469.634,-31.738,8.301,-18.066,-22.949,0.000
1760221469.638,0.488,8.301,-22.949,-21.973,0.000
1760221469.641,35.645,11.719,-19.043,0.977,0.000
1760221469.645,55.176,11.719,-18.555,8.301,0.000
1760221469.649,50.293,13.672,-30.273,-11.719,0.000
1760221469.653,-3.418,6.348,-29.297,-17.090,0.000
1760221469.657,-21.484,2.441,-23.438,-0.977,0.000
1760221469.661,22.949,6.348,-21.484,8.301,0.000
1760221469.665,41.992,5.371,-19.531,-12.207,0.000
1760221469.669,11.719,11.230,-23.926,-15.137,0.000
1760221469.673,-1.953,13.672,-23.438,9.277,0.000
1760221469.677,21.973,0.977,-20.508,19.531,0.000
1760221469.680,20.996,-3.906,-23.438,5.859,0.000
1760221469.684,10.742,-1.953,-28.809,1.465,0.000
1760221469.688,15.137,1.465,-30.273,5.371,0.000
1760221469.692,26.367,5.371,-30.273,12.695,0.000
1760221469.696,35.645,2.930,-34.180,-4.883,0.000
1760221469.700,41.016,0.000,-23.438,-16.113,0.000
1760221469.704,8.789,-3.418,-16.602,-15.625,0.000
1760221469.708,-5.859,-1.953,-19.043,3.418,0.000
1760221469.712,9.766,3.906,-15.625,9.766,0.000
1760221469.716,29.785,-0.488,-15.137,-9.766,0.000
1760221469.720,-5.371,-6.836,-17.578,-27.832,0.000
1760221469.723,-32.715,-3.418,-16.602,-14.648,0.000
1760221469.727,-3.906,-0.488,-14.160,8.301,0.000
1760221469.731,6.348,5.859,-19.043,-12.695,0.000
1760221469.735,20.508,2.930,-22.461,-11.719,0.000
1760221469.739,32.715,-7.812,-24.902,0.977,0.000
1760221469.743,25.391,-11.719,-34.180,1.465,0.000
1760221469.747,-11.719,-0.977,-22.949,-9.277,0.000
1760221469.751,-18.555,2.930,-15.137,-24.902,0.000
1760221469.755,-15.625,-6.348,-19.043,-8.789,0.000
1760221469.759,-28.320,-11.719,-17.578,7.324,0.000
1760221469.762,-4.883,-12.695,-21.484,4.883,0.000
1760221469.766,11.719,-12.207,-28.320,-11.719,0.000
1760221469.770,-20.996,-15.137,-25.391,-20.508,0.000
1760221469.774,-19.043,-19.531,-26.855,0.977,0.000
1760221469.778,-15.137,-18.555,-28.809,-1.465,0.000
1760221469.782,-34.668,-13.672,-24.902,-19.043,0.000
1760221469.786,-14.160,-18.066,-23.438,-5.859,0.000
1760221469.790,22.949,-22.949,-24.414,7.324,0.000
1760221469.794,16.113,-7.324,-23.926,0.488,0.000
1760221469.798,-13.184,-9.277,-20.020,-2.441,0.000
1760221469.801,14.160,-17.578,-20.996,-0.488,0.000
1760221469.805,14.648,-17.090,-23.926,8.789,0.000
1760221469.809,-32.227,-19.531,-25.391,22.461,0.000
1760221469.813,-13.184,-15.137,-28.320,15.137,0.000
1760221469.817,20.996,-13.184,-22.949,17.090,0.000
1760221469.821,3.906,-16.602,-21.484,5.371,0.000
1760221469.825,-3.418,-19.043,-24.902,-6.836,0.000
1760221469.829,34.180,-19.531,-21.973,3.418,0.000
1760221469.833,18.555,-20.020,-24.902,3.418,0.000
1760221469.837,-34.668,-19.531,-22.949,-5.859,0.000
1760221469.841,-18.555,-19.043,-25.391,4.395,0.000
1760221469.844,14.160,-19.043,-26.855,19.043,0.000
1760221469.848,10.742,-13.184,-27.344,1.465,0.000
1760221469.852,2.930,-12.207,-32.715,3.906,0.000
1760221469.856,15.137,-17.578,-23.926,24.414,0.000
1760221469.860,27.832,-12.207,-18.555,16.113,0.000
1760221469.864,19.043,-5.859,-23.438,-3.418,0.000
1760221469.868,7.812,-9.766,-21.484,-7.324,0.000
1760221469.872,45.410,-11.719,-17.578,-2.441,0.000
1760221469.876,65.430,-14.160,-24.414,13.672,0.000
1760221469.880,-15.137,-12.695,-32.715,6.836,0.000
1760221469.884,-20.996,-8.789,-36.621,-17.090,0.000
1760221469.887,37.598,-17.090,-32.715,-16.113,0.000
1760221469.891,7.324,-18.555,-25.879,22.949,0.000
1760221469.895,-33.203,-5.859,-18.555,15.625,0.000
1760221469.899,-29.297,-2.441,-10.254,-19.043,0.000
1760221469.903,-13.184,-5.371,-13.184,-8.301,0.000
1760221469.907,10.742,-6.836,-20.020,10.254,0.000
1760221469.911,21.484,-12.207,-19.531,24.414,0.000
1760221469.915,18.555,-10.254,-19.043,5.371,0.000
1760221469.919,13.672,-8.789,-21.484,-2.441,0.000
1760221469.923,1.953,-20.020,-21.973,16.602,0.000
1760221469.927,27.344,-18.066,-20.508,5.859,0.000
1760221469.930,50.293,-8.789,-19.531,-28.809,0.000
1760221469.934,-6.836,-12.207,-23.438,-20.020,0.000
1760221469.938,-20.508,-19.531,-20.996,6.836,0.000
1760221469.942,10.742,-16.113,-17.578,2.441,0.000
1760221469.946,-21.973,-8.301,-22.949,-27.344,0.000
1760221469.950,-19.043,-6.836,-26.855,-32.227,0.000
1760221469.954,-12.695,-7.324,-26.855,-20.508,0.000
1760221469.958,-30.273,-10.254,-27.344,-23.926,0.000
1760221469.962,7.812,-16.113,-26.367,-27.344,0.000
1760221469.966,9.766,-12.695,-21.484,-22.949,0.000
1760221469.969,-28.320,-10.254,-25.391,-30.273,0.000
1760221469.973,-37.109,-19.531,-31.738,-35.645,0.000
1760221469.977,-14.648,-15.625,-31.250,-20.508,0.000
1760221469.981,13.672,-6.836,-27.832,-7.812,0.000
1760221469.985,13.672,-2.930,-27.344,-21.484,0.000
1760221469.989,-5.371,1.953,-29.785,-37.109,0.000
1760221469.993,-9.277,3.418,-30.273,-14.648,0.000
1760221469.997,-4.395,3.906,-26.855,-14.648,0.000
1760221470.001,-7.812,-1.953,-22.949,-34.180,0.000
1760221470.005,-25.391,-6.348,-24.414,-39.551,0.000
1760221470.009,-5.859,-7.324,-26.855,-5.859,0.000
1760221470.012,14.160,-6.348,-20.020,13.184,0.000
1760221470.016,1.953,-6.836,-15.625,-10.254,0.000
1760221470.020,-25.391,-11.230,-18.555,-27.832,0.000
1760221470.024,22.949,-12.207,-15.137,-5.371,0.000
1760221470.028,55.176,-3.906,-15.625,10.742,0.000
1760221470.032,-26.367,0.000,-17.090,-22.461,0.000
1760221470.036,-42.969,-8.789,-17.090,-23.438,0.000
1760221470.040,-10.742,-8.789,-15.137,-2.441,0.000
1760221470.044,34.668,-4.883,-10.254,-2.930,0.000
1760221470.048,29.785,-3.418,-6.348,-10.254,0.000
1760221470.052,4.883,-0.488,-6.348,-15.137,0.000
1760221470.055,-11.719,-1.465,-15.625,-11.230,0.000
1760221470.059,-20.996,-7.812,-21.973,-2.441,0.000
1760221470.063,-0.977,-15.137,-21.973,-14.160,0.000
1760221470.067,-0.977,-10.254,-23.438,-20.996,0.000
1760221470.071,17.090,-2.441,-16.113,7.324,0.000
1760221470.075,58.594,-7.324,-12.207,31.250,0.000
1760221470.079,24.902,-1.953,-10.254,-4.395,0.000
1760221470.083,-22.461,0.977,-8.301,-22.949,0.000
1760221470.087,-11.230,-6.836,-8.789,-6.348,0.000
1760221470.091,14.160,0.488,-9.766,9.766,0.000
1760221470.094,43.457,-0.488,-9.766,13.184,0.000
1760221470.098,29.785,-4.883,-6.348,0.000,0.000
1760221470.102,8.301,2.930,-8.301,0.488,0.000
1760221470.106,13.184,1.465,-10.742,20.020,0.000
1760221470.110,32.227,0.000,-11.719,20.508,0.000
1760221470.114,28.320,-13.672,-15.137,8.301,0.000
1760221470.118,-14.160,-23.926,-16.113,10.742,0.000
1760221470.122,-20.020,-13.672,-14.648,3.418,0.000
1760221470.126,7.812,-3.906,-11.230,8.301,0.000
1760221470.130,27.832,-0.977,-10.742,10.254,0.000
1760221470.133,6.348,-1.953,-13.184,-0.488,0.000
1760221470.137,-17.578,1.953,-9.766,0.000,0.000
1760221470.141,17.578,1.953,-5.371,17.578,0.000
1760221470.145,42.969,-2.441,-10.742,32.715,0.000
1760221470.149,10.742,-3.418,-12.695,6.836,0.000
1760221470.153,-16.602,-6.836,-9.277,-16.113,0.000
1760221470.157,-8.789,-2.441,-5.859,6.836,0.000
1760221470.161,22.461,-1.953,-8.789,25.879,0.000
1760221470.165,-5.371,-11.719,-8.301,5.859,0.000
1760221470.169,-25.391,-1.953,-0.977,-5.371,0.000
1760221470.173,19.531,5.859,-1.465,24.414,0.000
1760221470.176,31.250,-0.488,1.953,30.762,0.000
1760221470.180,29.297,5.859,2.930,5.371,0.000
1760221470.184,38.086,6.836,2.441,-7.812,0.000
1760221470.188,-9.277,-13.184,-7.324,-8.301,0.000
1760221470.192,-2.441,-12.695,-11.230,20.996,0.000
1760221470.196,20.020,-6.836,-3.418,36.621,0.000
1760221470.200,-0.488,-10.742,-3.418,-3.906,0.000
1760221470.204,11.719,-9.766,4.395,-5.371,0.000
1760221470.208,27.344,-17.578,12.695,21.973,0.000
1760221470.212,-2.441,-17.090,18.066,-13.672,0.000
1760221470.216,-32.227,-0.977,30.273,-7.324,0.000
1760221470.219,-20.020,4.883,42.480,6.348,0.000
1760221470.223,-12.207,16.602,32.715,-3.906,0.000
1760221470.227,-13.184,6.836,32.715,0.977,0.000
1760221470.231,-28.320,-9.277,28.809,-31.250,0.000
1760221470.235,-38.574,12.207,25.391,-51.758,0.000
1760221470.239,-41.992,14.648,54.199,-34.180,0.000
1760221470.243,-33.691,19.531,42.480,-21.973,0.000
1760221470.247,-40.039,26.855,31.738,-69.336,0.000
1760221470.251,-73.730,23.926,47.852,-105.957,0.000
1760221470.255,-101.562,42.480,65.430,-122.559,0.000
1760221470.258,-143.555,62.012,88.867,-142.578,0.000
1760221470.262,-185.547,75.195,115.234,-148.926,0.000
1760221470.266,-146.484,90.332,115.234,-164.062,0.000
1760221470.270,-156.738,92.773,111.816,-181.152,0.000
1760221470.274,-215.332,94.727,111.816,-178.711,0.000
1760221470.278,-210.938,104.004,103.027,-177.734,0.000
1760221470.282,-190.918,107.910,99.121,-183.105,0.000
1760221470.286,-174.316,117.188,97.168,-172.363,0.000
1760221470.290,-161.133,108.887,94.727,-154.785,0.000
1760221470.294,-128.906,102.051,92.773,-142.578,0.000
1760221470.298,-122.070,101.562,83.008,-143.066,0.000
1760221470.301,-137.207,84.961,69.824,-128.418,0.000
1760221470.305,-122.070,77.637,62.500,-100.098,0.000
1760221470.309,-70.801,72.266,58.105,-67.383,0.000
1760221470.313,-42.480,51.758,44.434,-20.996,0.000
1760221470.317,-62.500,35.156,31.738,-42.480,0.000
1760221470.321,-65.430,30.273,17.090,-68.848,0.000
1760221470.325,-12.207,19.043,11.230,-15.137,0.000
1760221470.329,20.508,14.160,10.742,2.930,0.000
1760221470.333,-17.090,15.625,6.348,-1.953,0.000
1760221470.337,-7.812,-1.953,2.930,23.438,0.000
1760221470.341,23.438,-14.160,-5.371,47.852,0.000
1760221470.344,23.438,-7.812,-15.625,30.273,0.000
1760221470.348,23.438,-3.906,-14.160,23.438,0.000
1760221470.352,34.180,-3.418,-11.230,37.598,0.000
1760221470.356,56.641,-13.184,-16.113,67.383,0.000
1760221470.360,66.895,-18.066,-19.531,84.961,0.000
1760221470.364,47.852,-9.766,-18.555,64.453,0.000
1760221470.368,67.871,-10.254,-18.066,64.453,0.000
1760221470.372,126.465,-9.277,-17.090,75.195,0.000
1760221470.376,111.816,-16.113,-15.625,81.055,0.000
1760221470.380,58.105,-20.020,-22.461,69.824,0.000
1760221470.384,63.965,-14.648,-23.438,77.148,0.000
1760221470.387,66.406,-18.555,-20.020,86.914,0.000
1760221470.391,76.172,-9.766,-16.113,96.191,0.000
1760221470.395,83.496,-12.207,-18.066,97.168,0.000
1760221470.399,75.684,-27.344,-25.391,72.266,0.000
1760221470.403,103.516,-27.832,-34.668,67.383,0.000
1760221470.407,103.516,-18.066,-37.109,61.523,0.000
1760221470.411,63.965,-20.508,-30.273,67.383,0.000
1760221470.415,57.129,-32.227,-29.785,68.359,0.000
1760221470.419,47.852,-27.832,-35.645,46.875,0.000
1760221470.423,49.316,-20.996,-31.738,54.688,0.000
1760221470.427,76.172,-24.414,-26.855,85.449,0.000
1760221470.430,83.984,-23.926,-29.785,66.895,0.000
1760221470.434,95.215,-25.879,-34.180,38.574,0.000
1760221470.438,78.125,-28.809,-38.574,50.293,0.000
1760221470.442,49.316,-28.809,-44.434,53.711,0.000
1760221470.446,87.402,-31.738,-41.992,66.406,0.000
1760221470.450,66.406,-28.320,-44.434,61.035,0.000
1760221470.454,19.043,-21.484,-42.480,35.156,0.000
1760221470.458,38.574,-31.250,-27.344,56.641,0.000
1760221470.462,35.645,-38.086,-24.414,62.988,0.000
1760221470.466,25.879,-36.133,-26.855,38.086,0.000
1760221470.469,28.809,-32.715,-31.250,27.832,0.000
1760221470.473,43.945,-30.762,-35.645,43.457,0.000
1760221470.477,48.828,-30.762,-37.598,47.852,0.000
1760221470.481,60.547,-33.691,-36.133,22.461,0.000
1760221470.485,45.898,-32.227,-37.109,22.949,0.000
1760221470.489,29.297,-25.391,-35.156,42.969,0.000
1760221470.493,44.434,-33.203,-33.203,50.781,0.000
1760221470.497,3.906,-38.086,-35.156,20.996,0.000
1760221470.501,-6.836,-33.203,-33.691,11.230,0.000
1760221470.505,28.320,-28.809,-31.250,38.086,0.000
1760221470.508,48.828,-26.855,-25.391,44.434,0.000
1760221470.512,56.152,-27.344,-22.461,30.762,0.000
1760221470.516,34.668,-24.902,-27.832,26.367,0.000
1760221470.520,22.461,-22.949,-30.762,18.066,0.000
1760221470.524,50.781,-25.391,-31.250,34.180,0.000
1760221470.528,30.762,-30.762,-36.621,26.367,0.000
1760221470.532,-6.348,-31.250,-37.109,-0.488,0.000
1760221470.536,9.766,-35.645,-33.203,23.926,0.000
1760221470.540,17.090,-27.832,-32.227,36.621,0.000
1760221470.544,13.184,-15.625,-23.438,19.043,0.000
1760221470.548,27.344,-16.602,-17.090,6.348,0.000
1760221470.551,33.203,-18.555,-21.973,4.395,0.000
1760221470.555,6.836,-25.879,-18.555,18.066,0.000
1760221470.559,9.766,-24.414,-19.043,23.438,0.000
1760221470.563,8.301,-21.484,-18.555,17.578,0.000
1760221470.567,6.348,-20.020,-13.672,27.832,0.000
1760221470.571,23.438,-12.207,-19.531,24.902,0.000
1760221470.575,37.598,-10.254,-24.414,27.344,0.000
1760221470.579,41.992,-9.277,-25.391,31.738,0.000
1760221470.583,19.531,-7.812,-28.809,23.926,0.000
1760221470.587,7.324,-3.906,-27.832,5.859,0.000
1760221470.590,31.738,-5.371,-21.973,13.672,0.000
1760221470.594,55.176,-7.812,-22.949,31.250,0.000
1760221470.598,48.828,-7.812,-23.926,10.742,0.000
1760221470.602,8.301,-4.395,-23.438,-6.348,0.000
1760221470.606,7.324,-6.836,-27.832,6.836,0.000
1760221470.610,44.922,-18.066,-26.367,21.484,0.000
1760221470.614,9.766,-17.578,-24.902,15.137,0.000
1760221470.618,-17.578,-15.137,-27.832,8.301,0.000
1760221470.622,8.301,-18.555,-25.391,0.488,0.000
1760221470.626,54.199,-19.531,-23.438,20.996,0.000
1760221470.630,25.879,-20.508,-25.879,20.996,0.000
1760221470.633,-20.996,-15.625,-27.832,-2.930,0.000
1760221470.637,-12.695,-11.719,-28.809,2.441,0.000
1760221470.641,-0.977,-16.602,-27.832,23.438,0.000
1760221470.645,-11.230,-14.648,-24.902,16.602,0.000
1760221470.649,-3.906,-9.277,-23.438,0.977,0.000
1760221470.653,18.555,-6.836,-23.926,4.883,0.000
1760221470.657,47.363,-10.742,-22.949,12.695,0.000
1760221470.661,31.250,-10.742,-24.414,10.254,0.000
1760221470.665,-8.301,-8.301,-25.391,-9.277,0.000
1760221470.669,-1.465,-14.648,-24.414,-9.277,0.000
1760221470.673,11.719,-13.672,-24.414,17.090,0.000
1760221470.676,12.207,-11.230,-22.949,20.508,0.000
1760221470.680,14.160,-12.207,-22.461,-0.488,0.000
1760221470.684,28.320,-12.207,-21.484,-2.441,0.000
1760221470.688,41.016,-11.719,-20.996,10.742,0.000
1760221470.692,16.113,-1.953,-18.066,20.508,0.000
1760221470.696,-0.977,0.000,-10.254,19.043,0.000
1760221470.700,10.742,-8.789,-11.230,13.672,0.000
1760221470.704,21.973,-7.812,-13.184,20.508,0.000
1760221470.708,8.789,-2.930,-14.648,33.691,0.000
1760221470.712,1.465,-10.742,-19.043,25.879,0.000
1760221470.715,25.391,-17.578,-15.137,-2.441,0.000
1760221470.719,20.020,-19.043,-18.066,-5.371,0.000
1760221470.723,-5.371,-18.066,-22.461,6.348,0.000
1760221470.727,13.184,-12.695,-19.531,8.789,0.000
1760221470.731,12.207,-13.184,-23.438,-2.441,0.000
1760221470.735,6.836,-18.066,-21.484,12.695,0.000
1760221470.739,29.297,-14.160,-12.695,13.184,0.000
1760221470.743,27.344,-8.789,-13.672,4.883,0.000
1760221470.747,34.668,-8.789,-25.879,-0.488,0.000
1760221470.751,24.414,-7.324,-28.809,-13.672,0.000
1760221470.755,-27.832,-13.184,-23.438,-7.812,0.000
1760221470.758,-24.902,-16.602,-25.391,7.812,0.000
1760221470.762,6.836,-13.184,-29.297,4.883,0.000
1760221470.766,-3.418,-15.625,-30.762,-8.301,0.000
1760221470.770,6.836,-20.020,-33.691,-12.695,0.000
1760221470.774,39.551,-11.719,-33.203,-2.930,0.000
1760221470.778,47.363,-16.602,-35.156,19.531,0.000
1760221470.782,10.742,-23.438,-29.297,7.324,0.000
1760221470.786,-18.066,-15.137,-20.996,-21.973,0.000
1760221470.790,-22.461,-22.949,-16.113,-24.414,0.000
1760221470.794,-38.086,-30.762,-11.719,-16.113,0.000
1760221470.798,-62.012,-28.320,-8.301,-47.363,0.000
1760221470.801,-78.125,-28.809,-0.488,-82.520,0.000
1760221470.805,-83.984,-43.457,5.859,-85.938,0.000
1760221470.809,-49.805,-49.805,6.836,-74.707,0.000
1760221470.813,-79.102,-38.574,15.625,-77.148,0.000
1760221470.817,-135.742,-35.645,21.973,-88.867,0.000
1760221470.821,-100.098,-34.668,19.043,-72.754,0.000
1760221470.825,-95.703,-31.250,17.090,-66.406,0.000
1760221470.829,-123.535,-26.855,19.531,-84.961,0.000
1760221470.833,-122.070,-24.414,21.484,-80.566,0.000
1760221470.837,-86.914,-20.508,12.207,-68.848,0.000
1760221470.840,-60.059,-19.531,4.395,-51.270,0.000
1760221470.844,-44.922,-17.090,11.719,-37.598,0.000
1760221470.848,-59.082,-28.320,6.348,-53.223,0.000
1760221470.852,-68.848,-34.180,-2.441,-50.293,0.000
1760221470.856,-30.762,-18.555,7.812,-33.203,0.000
1760221470.860,-13.672,-18.066,8.301,-24.902,0.000
1760221470.864,-28.809,-15.137,1.465,-22.461,0.000
1760221470.868,-20.020,-13.184,2.930,-15.137,0.000
1760221470.872,-18.555,-11.230,3.906,-14.648,0.000
1760221470.876,-19.043,-10.254,2.441,-3.418,0.000
1760221470.879,-16.602,-16.602,-0.488,-9.277,0.000
1760221470.883,-23.438,-15.137,-1.953,-23.926,0.000
1760221470.887,-16.113,-9.766,-1.953,-22.949,0.000
1760221470.891,11.230,-9.277,2.441,-0.488,0.000
1760221470.895,-14.648,-18.555,0.977,-1.953,0.000
1760221470.899,-48.340,-27.344,-11.230,-10.254,0.000
1760221470.903,-37.598,-24.414,-16.113,-7.324,0.000
1760221470.907,-14.648,-19.531,-17.578,-8.301,0.000
1760221470.911,25.391,-21.973,-16.113,11.719,0.000
1760221470.915,13.672,-23.438,-17.090,9.766,0.000
1760221470.919,-18.066,-18.066,-20.508,-10.254,0.000
1760221470.922,-25.879,-23.438,-22.949,-0.488,0.000
1760221470.926,27.344,-23.926,-26.367,17.578,0.000
1760221470.930,44.922,-23.438,-20.020,-1.953,0.000
1760221470.934,-8.789,-20.020,-14.160,-11.230,0.000
1760221470.938,-5.859,-5.371,-16.113,0.977,0.000
1760221470.942,-7.812,-6.836,-16.113,23.926,0.000
1760221470.946,-13.672,-12.207,-20.508,1.953,0.000
1760221470.950,-12.207,-9.277,-24.414,-18.066,0.000
1760221470.954,-2.930,-10.254,-23.438,5.371,0.000
1760221470.958,9.766,-23.438,-23.926,24.902,0.000
1760221470.962,6.348,-21.484,-22.461,0.000,0.000
1760221470.965,27.832,-10.742,-25.391,-15.137,0.000
1760221470.969,22.461,-15.625,-25.879,-3.418,0.000
1760221470.973,-21.973,-17.578,-21.973,1.953,0.000
1760221470.977,19.531,-15.137,-20.020,0.488,0.000
1760221470.981,27.832,-12.695,-21.484,-4.395,0.000
1760221470.985,-11.719,-20.020,-28.320,-2.930,0.000
1760221470.989,-5.371,-25.879,-29.297,-6.348,0.000
1760221470.993,8.301,-13.672,-23.926,8.789,0.000
1760221470.997,4.883,-10.254,-17.578,4.395,0.000
1760221471.001,14.648,-16.113,-22.461,21.973,0.000
1760221471.004,18.555,-13.184,-25.879,24.414,0.000
1760221471.008,33.691,-9.766,-22.949,14.648,0.000
1760221471.012,51.270,-2.930,-20.508,18.555,0.000
1760221471.016,20.508,2.441,-20.020,4.395,0.000
1760221471.020,17.578,-6.836,-21.973,9.766,0.000
1760221471.024,30.273,-7.812,-18.066,22.949,0.000
1760221471.028,5.859,-7.324,-22.949,14.648,0.000
1760221471.032,-3.418,-14.160,-22.461,7.324,0.000
1760221471.036,2.441,-7.324,-13.184,4.883,0.000
1760221471.040,-2.930,-1.465,-13.672,11.230,0.000
1760221471.044,17.578,-0.488,-15.625,32.715,0.000
1760221471.047,29.297,-0.977,-18.066,18.555,0.000
1760221471.051,29.297,-1.953,-20.020,-6.836,0.000
1760221471.055,0.000,-1.953,-23.438,-4.883,0.000
1760221471.059,0.488,-5.371,-26.855,18.066,0.000
1760221471.063,3.418,-12.207,-21.973,22.949,0.000
1760221471.067,-24.902,-9.766,-23.438,-10.254,0.000
1760221471.071,-18.066,-8.789,-26.367,-1.953,0.000
1760221471.075,19.043,-11.230,-20.508,24.414,0.000
1760221471.079,22.949,-11.719,-13.672,12.207,0.000
1760221471.083,-15.137,-11.230,-15.625,-8.301,0.000
1760221471.087,-9.766,-6.348,-17.578,-7.324,0.000
1760221471.090,24.414,-8.301,-18.555,13.672,0.000
1760221471.094,19.531,-5.371,-15.137,7.812,0.000
1760221471.098,19.531,0.488,-12.695,-6.836,0.000
1760221471.102,19.531,-0.488,-18.555,-15.137,0.000
1760221471.106,-8.789,-13.672,-22.461,4.883,0.000
1760221471.110,1.465,-16.602,-24.902,11.230,0.000
1760221471.114,-22.461,-14.648,-26.367,-18.066,0.000
1760221471.118,-32.227,-16.602,-27.344,-19.531,0.000
1760221471.122,-11.719,-16.602,-31.250,-19.043,0.000
1760221471.126,29.297,-16.602,-32.227,-8.789,0.000
1760221471.129,38.574,-13.672,-29.297,-5.371,0.000
1760221471.133,-8.789,-12.695,-28.320,-0.977,0.000
1760221471.137,-11.719,-10.742,-24.414,10.254,0.000
1760221471.141,-10.742,-19.531,-21.973,19.043,0.000
1760221471.145,-35.645,-18.066,-17.578,7.812,0.000
1760221471.149,-10.742,-4.395,-22.949,-2.441,0.000
1760221471.153,-7.324,-12.207,-29.785,13.672,0.000
1760221471.157,-11.230,-14.648,-20.996,7.812,0.000
1760221471.161,11.719,-6.348,-19.531,-1.953,0.000
1760221471.165,-8.301,-5.859,-20.020,4.395,0.000
1760221471.169,-12.207,-16.602,-16.602,5.859,0.000
1760221471.172,8.789,-15.625,-14.648,-8.789,0.000
1760221471.176,29.297,-13.184,-16.602,0.977,0.000
1760221471.180,38.574,-19.531,-18.066,5.371,0.000
1760221471.184,-10.254,-23.438,-22.461,-4.883,0.000
1760221471.188,-29.785,-23.438,-22.949,2.930,0.000
1760221471.192,6.348,-16.602,-20.996,15.625,0.000
1760221471.196,46.387,-18.555,-21.973,17.578,0.000
1760221471.200,26.367,-14.648,-22.461,9.766,0.000
1760221471.204,-18.066,-6.836,-25.879,-12.207,0.000
1760221471.208,8.301,-11.719,-21.973,2.930,0.000
1760221471.211,7.324,-15.137,-17.090,17.578,0.000
1760221471.215,2.930,-8.789,-15.137,1.465,0.000
1760221471.219,3.418,-0.977,-18.066,-4.395,0.000
1760221471.223,15.625,-9.277,-21.484,20.508,0.000
1760221471.227,19.531,-7.812,-20.996,10.254,0.000
1760221471.231,3.906,-4.395,-21.973,-22.949,0.000
1760221471.235,2.441,-9.766,-20.996,-15.625,0.000
1760221471.239,32.227,-9.277,-19.531,8.301,0.000
1760221471.243,34.668,-14.648,-16.113,26.855,0.000
1760221471.247,-32.227,-13.672,-12.695,-0.488,0.000
1760221471.251,-19.043,-6.348,-12.695,-14.160,0.000
1760221471.254,4.395,-4.395,-12.207,2.441,0.000
1760221471.258,10.742,-7.812,-12.207,23.438,0.000
1760221471.262,12.695,-13.672,-14.648,14.160,0.000
1760221471.266,41.504,-2.441,-14.160,-0.488,0.000
1760221471.270,37.598,0.977,-12.695,12.207,0.000
1760221471.274,-15.137,-4.883,-15.625,15.625,0.000
1760221471.278,-15.137,-4.883,-12.695,23.438,0.000
1760221471.282,13.672,-0.977,-10.742,21.973,0.000
1760221471.286,46.387,-2.441,-14.160,16.113,0.000
1760221471.290,39.062,-14.160,-16.602,29.297,0.000
1760221471.293,-5.371,-7.812,-12.207,26.367,0.000
1760221471.297,-19.043,-0.488,-13.672,3.906,0.000
1760221471.301,0.000,-3.906,-15.625,1.953,0.000
1760221471.305,7.324,-5.859,-16.113,19.531,0.000
1760221471.309,41.504,-3.418,-14.160,23.926,0.000
1760221471.313,48.340,-1.465,-9.766,15.137,0.000
1760221471.317,5.371,-10.254,-9.277,5.859,0.000
1760221471.321,20.996,-9.766,-7.812,-9.766,0.000
1760221471.325,40.039,1.953,-4.883,5.371,0.000
1760221471.329,10.742,0.000,-7.324,19.043,0.000
1760221471.333,-9.277,-3.906,-5.371,10.254,0.000
1760221471.336,-13.672,-4.395,-4.883,-1.465,0.000
1760221471.340,53.711,3.418,-5.859,6.836,0.000
1760221471.344,46.387,3.418,-12.207,14.648,0.000
1760221471.348,-26.367,-3.418,-14.160,27.344,0.000
1760221471.352,-27.832,-2.441,-12.207,15.625,0.000
1760221471.356,0.488,-2.441,-14.160,3.906,0.000
1760221471.360,50.781,-6.836,-13.184,22.461,0.000
1760221471.364,25.391,-2.930,-12.695,7.812,0.000
1760221471.368,-23.438,-3.906,-15.137,4.883,0.000
1760221471.372,23.438,-10.742,-15.137,19.043,0.000
1760221471.375,81.543,-4.883,-12.207,36.621,0.000
1760221471.379,11.230,-4.395,-7.324,24.414,0.000
1760221471.383,-42.969,-4.883,-3.906,-2.441,0.000
1760221471.387,-26.367,2.441,-12.207,-3.906,0.000
1760221471.391,12.695,0.000,-13.184,24.414,0.000
1760221471.395,33.203,6.348,-11.719,25.879,0.000
1760221471.399,-1.465,17.578,-16.602,-7.324,0.000
1760221471.403,4.395,7.812,-17.090,-0.488,0.000
1760221471.407,51.270,0.000,-16.602,21.973,0.000
1760221471.411,16.602,-0.977,-16.113,4.395,0.000
1760221471.415,-29.785,-14.160,-16.113,-17.578,0.000
1760221471.418,-25.391,-19.043,-8.789,-13.184,0.000
1760221471.422,-9.766,-18.066,-4.883,12.207,0.000
1760221471.426,12.695,-15.625,-10.254,12.207,0.000
1760221471.430,-18.066,-12.695,-13.672,-15.625,0.000
1760221471.434,-16.602,-16.602,-16.113,-2.930,0.000
1760221471.438,-1.953,-11.719,-19.043,12.207,0.000
1760221471.442,16.113,-8.789,-16.113,4.395,0.000
1760221471.446,41.992,-11.719,-18.555,-0.977,0.000
1760221471.450,4.395,-12.207,-24.902,-15.625,0.000
1760221471.454,-41.504,-7.324,-16.113,-4.395,0.000
1760221471.458,-43.457,-1.953,-10.742,23.438,0.000
1760221471.461,-25.391,-7.324,-15.137,-1.465,0.000
1760221471.465,-13.184,-13.672,-13.672,-12.695,0.000
1760221471.469,-16.113,-13.672,-17.578,-9.277,0.000
1760221471.473,-14.160,-12.207,-19.043,-6.836,0.000
1760221471.477,11.719,-7.324,-16.602,-8.789,0.000
1760221471.481,44.434,-10.254,-25.391,-1.465,0.000
1760221471.485,-1.953,-18.066,-31.738,1.465,0.000
1760221471.489,-49.805,-10.742,-29.297,-19.043,0.000
1760221471.493,-6.348,-7.812,-26.367,-13.672,0.000
1760221471.497,-3.906,-9.766,-25.879,-23.438,0.000
1760221471.501,-32.227,-14.160,-28.320,-37.109,0.000
1760221471.504,-31.738,-11.719,-27.344,-29.785,0.000
1760221471.508,0.488,-7.812,-19.531,-9.766,0.000
1760221471.512,16.113,-13.672,-14.648,-13.672,0.000
1760221471.516,-1.465,-17.578,-14.160,-16.113,0.000
1760221471.520,-12.207,-14.648,-15.137,-17.090,0.000
1760221471.524,10.742,-11.230,-20.020,-7.324,0.000
1760221471.528,7.324,-9.766,-24.414,-1.953,0.000
1760221471.532,-31.250,-9.766,-18.555,-28.320,0.000
1760221471.536,-18.555,-12.695,-8.301,-20.996,0.000
1760221471.540,9.766,-9.766,-11.230,3.418,0.000
1760221471.543,19.531,-7.812,-13.184,12.695,0.000
1760221471.547,2.441,-8.301,-14.160,-1.465,0.000
1760221471.551,-13.184,-6.348,-20.020,-16.602,0.000
1760221471.555,26.367,-12.207,-21.484,-0.488,0.000
1760221471.559,20.508,-16.113,-16.602,9.277,0.000
1760221471.563,-26.367,-7.812,-17.090,-10.742,0.000
1760221471.567,-15.137,1.465,-13.672,1.465,0.000
1760221471.571,23.926,-1.953,-3.418,22.461,0.000
1760221471.575,23.438,-5.371,-1.953,22.949,0.000
1760221471.579,-5.371,-0.977,-5.371,11.230,0.000
1760221471.582,-12.207,0.000,-7.812,5.371,0.000
1760221471.586,-8.301,-4.883,-5.371,0.488,0.000
1760221471.590,9.277,-10.254,-3.906,3.906,0.000
1760221471.594,23.926,-4.883,-4.395,7.812,0.000
1760221471.598,31.250,-3.418,-2.930,8.789,0.000
1760221471.602,65.430,-8.301,-6.836,-2.441,0.000
1760221471.606,48.340,-7.324,-6.348,5.859,0.000
1760221471.610,0.488,-1.953,-3.418,21.484,0.000
1760221471.614,-28.809,-5.859,-10.742,-0.488,0.000
1760221471.618,-35.645,-13.672,-11.230,3.418,0.000
1760221471.622,-13.184,-13.672,-12.695,10.254,0.000
1760221471.625,0.488,-13.184,-11.719,19.043,0.000
1760221471.629,-5.859,-8.301,-13.672,18.066,0.000
1760221471.633,-2.441,-4.395,-15.137,-9.766,0.000
1760221471.637,39.551,0.488,-10.254,-13.672,0.000
1760221471.641,23.438,2.441,-11.230,4.883,0.000
1760221471.645,-24.414,-4.883,-12.695,-4.395,0.000
1760221471.649,-21.973,-6.836,-11.719,-12.207,0.000
1760221471.653,-12.695,-3.906,-11.230,-7.812,0.000
1760221471.657,12.695,3.418,-3.906,14.160,0.000
1760221471.661,32.227,5.371,-5.859,21.973,0.000
1760221471.665,25.879,3.418,-11.719,11.719,0.000
1760221471.668,0.488,2.930,-3.418,2.441,0.000
1760221471.672,6.348,0.000,-2.441,-3.418,0.000
1760221471.676,55.176,-5.859,-6.836,3.906,0.000
1760221471.680,28.809,-9.277,-6.348,-10.742,0.000
1760221471.684,-40.039,-10.742,-7.324,-11.719,0.000
1760221471.688,-34.668,-7.812,-7.324,-3.906,0.000
1760221471.692,-0.488,-3.906,-6.836,3.418,0.000
1760221471.696,6.348,-4.883,0.977,3.418,0.000
1760221471.700,3.418,-6.348,-0.488,-5.859,0.000
1760221471.704,3.418,-12.207,-8.789,-1.465,0.000
1760221471.707,24.414,-18.555,-11.230,20.020,0.000
1760221471.711,17.578,-10.254,-7.812,14.160,0.000
1760221471.715,-9.766,-4.395,-6.836,-13.184,0.000
1760221471.719,-7.324,-16.602,-13.672,-23.438,0.000
1760221471.723,32.227,-15.137,-13.184,-0.977,0.000
1760221471.727,65.918,-4.395,-7.324,6.836,0.000
1760221471.731,21.973,-5.371,-4.883,-12.695,0.000
1760221471.735,-27.832,-6.836,-9.277,-7.812,0.000
1760221471.739,-13.184,-5.859,-17.578,-2.930,0.000
1760221471.743,10.742,-4.883,-15.137,20.020,0.000
1760221471.747,21.484,3.418,-12.695,3.418,0.000
1760221471.750,27.832,4.883,-18.066,-17.578,0.000
1760221471.754,-2.930,-4.395,-20.508,-10.742,0.000
1760221471.758,-6.836,2.930,-15.625,-10.254,0.000
1760221471.762,31.738,12.695,-8.789,-7.324,0.000
1760221471.766,43.945,9.766,-11.719,0.488,0.000
1760221471.770,14.160,7.324,-9.766,5.371,0.000
1760221471.774,5.371,13.672,-12.695,2.930,0.000
1760221471.778,3.906,18.066,-12.207,4.395,0.000
1760221471.782,5.859,13.184,-4.395,-1.465,0.000
1760221471.786,-6.348,6.836,-8.789,-5.859,0.000
1760221471.789,-20.508,10.742,-12.207,0.488,0.000
1760221471.793,5.371,11.230,-12.207,8.301,0.000
1760221471.797,8.301,5.859,-13.672,-1.465,0.000
1760221471.801,5.371,4.883,-11.230,-12.207,0.000
1760221471.805,2.441,6.348,-9.766,-8.789,0.000
1760221471.809,7.324,2.930,-9.277,9.277,0.000
1760221471.813,9.766,4.395,-12.207,25.879,0.000
1760221471.817,13.672,10.742,-10.742,-1.465,0.000
1760221471.821,27.344,7.812,-3.418,-31.250,0.000
1760221471.825,-8.789,1.953,-11.719,-6.836,0.000
1760221471.829,-21.484,0.977,-15.625,-0.977,0.000
1760221471.832,-3.906,-5.371,-7.812,-6.836,0.000
1760221471.836,10.254,-5.371,-11.230,9.766,0.000
1760221471.840,13.184,7.324,-21.973,14.160,0.000
1760221471.844,6.348,11.719,-26.855,13.184,0.000
1760221471.848,13.184,8.301,-33.691,6.348,0.000
1760221471.852,12.207,16.602,-43.945,-7.812,0.000
1760221471.856,24.414,16.602,-52.246,20.996,0.000
1760221471.860,49.805,9.277,-56.152,32.227,0.000
1760221471.864,55.664,20.996,-58.594,-3.906,0.000
1760221471.868,48.340,21.973,-62.988,-2.930,0.000
1760221471.872,63.477,23.438,-68.359,17.090,0.000
1760221471.875,77.637,27.832,-73.242,27.344,0.000
1760221471.879,44.434,22.949,-69.336,11.719,0.000
1760221471.883,40.039,16.113,-60.547,3.418,0.000
1760221471.887,28.809,20.020,-54.199,13.184,0.000
1760221471.891,40.039,24.414,-54.688,39.551,0.000
1760221471.895,45.410,14.648,-55.664,31.250,0.000
1760221471.899,24.902,7.324,-51.758,-5.371,0.000
1760221471.903,55.176,12.207,-46.875,8.301,0.000
1760221471.907,65.430,13.672,-43.945,14.648,0.000
1760221471.911,41.016,11.230,-41.016,16.602,0.000
1760221471.914,25.391,14.648,-39.062,15.625,0.000
1760221471.918,16.113,10.742,-42.969,8.789,0.000
1760221471.922,13.672,3.418,-43.945,19.043,0.000
1760221471.926,13.672,6.348,-41.504,26.367,0.000
1760221471.930,13.184,6.836,-37.109,3.418,0.000
1760221471.934,-6.836,8.301,-37.598,-6.836,0.000
1760221471.938,4.883,12.695,-40.039,6.348,0.000
1760221471.942,36.621,18.066,-39.551,11.719,0.000
1760221471.946,39.062,20.996,-40.039,11.230,0.000
1760221471.950,32.227,14.160,-45.410,0.488,0.000
1760221471.954,52.246,9.277,-42.969,-13.184,0.000
1760221471.957,35.645,8.789,-32.715,5.371,0.000
1760221471.961,9.766,11.230,-28.320,7.812,0.000
1760221471.965,12.695,12.207,-29.785,-11.230,0.000
1760221471.969,-9.766,12.207,-28.320,1.953,0.000
1760221471.973,-3.418,11.230,-24.414,38.086,0.000
1760221471.977,23.438,7.812,-20.996,34.180,0.000
1760221471.981,20.508,11.230,-20.508,16.602,0.000
1760221471.985,11.719,11.719,-27.344,6.836,0.000
1760221471.989,44.922,3.906,-27.344,0.488,0.000
1760221471.993,41.504,-4.395,-27.832,14.648,0.000
1760221471.996,-12.207,-2.441,-36.133,-10.254,0.000
1760221472.000,-19.043,0.000,-34.180,-31.250,0.000
1760221472.004,-3.906,-3.418,-29.297,-6.836,0.000
1760221472.008,32.715,-3.906,-25.391,16.113,0.000
1760221472.012,26.855,-8.789,-27.344,2.930,0.000
1760221472.016,-10.742,-10.254,-29.785,-14.648,0.000
1760221472.020,-10.742,-17.090,-32.227,-12.207,0.000
1760221472.024,21.484,-20.996,-33.691,8.301,0.000
1760221472.028,23.926,-12.207,-25.391,10.742,0.000
1760221472.032,-0.488,-14.648,-25.879,0.488,0.000
1760221472.036,15.137,-23.438,-34.668,5.859,0.000
1760221472.039,25.879,-22.461,-43.457,10.742,0.000
1760221472.043,27.344,-16.602,-37.598,4.395,0.000
1760221472.047,-20.020,-18.555,-25.879,-8.789,0.000
1760221472.051,-20.996,-21.484,-25.391,-5.859,0.000
1760221472.055,10.742,-23.926,-16.602,10.254,0.000
1760221472.059,-16.602,-23.926,-10.254,19.043,0.000
1760221472.063,-22.949,-28.809,-16.113,-1.465,0.000
1760221472.067,-21.973,-33.203,-17.578,-16.113,0.000
1760221472.071,-12.207,-25.391,-13.672,-3.906,0.000
1760221472.075,9.766,-21.973,-9.277,21.973,0.000
1760221472.078,12.207,-18.066,-11.230,16.113,0.000
1760221472.082,1.465,-20.508,-15.625,10.742,0.000
1760221472.086,20.020,-18.555,-17.090,8.789,0.000
1760221472.090,33.203,-7.812,-22.461,0.977,0.000
1760221472.094,10.254,-7.812,-21.973,14.160,0.000
1760221472.098,6.836,-7.812,-14.648,5.371,0.000
1760221472.102,-4.395,-8.301,-16.602,-7.812,0.000
1760221472.106,-2.441,-15.625,-13.672,11.719,0.000
1760221472.110,10.254,-23.438,-8.789,41.992,0.000
1760221472.114,-4.883,-20.996,-11.719,24.902,0.000
1760221472.118,10.254,-21.973,-11.719,-0.977,0.000
1760221472.121,25.391,-23.438,-16.113,0.000,0.000
1760221472.125,3.418,-23.438,-18.555,14.160,0.000
1760221472.129,-19.043,-21.973,-11.719,11.719,0.000
1760221472.133,-29.297,-10.742,-4.883,-6.348,0.000
1760221472.137,-18.066,-9.277,-2.441,4.395,0.000
1760221472.141,25.391,-10.254,-7.324,34.668,0.000
1760221472.145,21.973,-11.230,-17.090,14.648,0.000
1760221472.149,-5.859,-14.648,-11.230,-0.977,0.000
1760221472.153,10.254,-14.648,-7.324,9.277,0.000
1760221472.157,3.418,-14.648,-7.812,-0.977,0.000
1760221472.161,2.930,-6.348,-6.348,1.953,0.000
1760221472.164,27.344,-3.418,-11.230,-5.371,0.000
1760221472.168,9.277,-19.043,-13.184,-6.836,0.000
1760221472.172,-12.207,-27.344,-10.254,13.184,0.000
1760221472.176,-2.441,-20.508,-6.836,10.254,0.000
1760221472.180,6.348,-12.695,-6.348,-9.766,0.000
1760221472.184,29.785,-5.371,-6.348,-13.184,0.000
1760221472.188,27.832,-0.488,-11.230,0.000,0.000
1760221472.192,9.277,-4.883,-9.277,7.812,0.000
1760221472.196,4.395,-6.836,-6.836,1.465,0.000
1760221472.200,-20.020,-0.488,-9.766,-1.465,0.000
1760221472.204,-22.461,-1.465,-8.789,-1.953,0.000
1760221472.207,13.184,-0.488,-6.836,12.207,0.000
1760221472.211,31.738,2.441,-7.812,25.879,0.000
1760221472.215,7.324,0.977,-0.977,5.371,0.000
1760221472.219,18.066,-1.953,2.930,-5.371,0.000
1760221472.223,50.781,2.930,-0.977,15.137,0.000
1760221472.227,7.812,8.301,-5.371,8.301,0.000
1760221472.231,-15.625,-0.488,-12.207,5.371,0.000
1760221472.235,-0.977,-4.395,-14.160,7.812,0.000
1760221472.239,-17.578,0.488,-14.648,-7.324,0.000
1760221472.243,-16.113,-1.465,-20.996,1.953,0.000
1760221472.246,12.207,0.000,-17.578,6.348,0.000
1760221472.250,10.254,-3.906,-12.207,-2.441,0.000
1760221472.254,-21.973,-5.859,-11.230,-13.184,0.000
1760221472.258,8.789,-2.930,-10.742,8.789,0.000
1760221472.262,19.531,-0.977,-15.625,8.789,0.000
1760221472.266,5.371,-2.441,-20.996,-15.137,0.000
1760221472.270,25.391,-0.488,-21.484,-11.719,0.000
1760221472.274,68.848,10.742,-24.902,20.020,0.000
1760221472.278,32.715,11.230,-27.344,29.785,0.000
1760221472.282,-27.344,6.836,-22.949,-14.160,0.000
1760221472.285,-13.184,1.465,-13.672,-25.391,0.000
1760221472.289,27.832,0.000,-10.254,7.324,0.000
1760221472.293,23.926,2.930,-11.719,19.531,0.000
1760221472.297,-8.789,-1.465,-14.648,-9.766,0.000
1760221472.301,-12.207,-1.465,-12.695,-19.531,0.000
1760221472.305,-10.254,-4.395,-10.254,-1.465,0.000
1760221472.309,9.766,-12.695,-9.277,17.090,0.000
1760221472.313,21.973,-6.348,-7.324,17.578,0.000
1760221472.317,4.395,3.418,-9.766,-10.254,0.000
1760221472.321,-3.906,-3.418,-11.230,0.000,0.000
1760221472.325,2.930,-8.301,-8.789,20.996,0.000
1760221472.328,-11.719,-3.906,-5.859,0.488,0.000
1760221472.332,-12.695,-2.930,-8.789,-5.859,0.000
1760221472.336,-1.953,-8.789,-9.766,4.395,0.000
1760221472.340,10.742,-9.766,-3.906,4.883,0.000
1760221472.344,41.504,-4.883,-1.953,-4.395,0.000
1760221472.348,47.852,-9.277,-13.672,0.488,0.000
1760221472.352,-5.371,-6.348,-21.484,-18.555,0.000
1760221472.356,-38.086,-6.836,-17.578,-23.438,0.000
1760221472.360,-10.742,-13.672,-13.672,-0.488,0.000
1760221472.364,-16.602,-12.695,-7.324,-8.301,0.000
1760221472.368,-17.578,-11.719,-7.324,-8.301,0.000
1760221472.371,-11.719,-10.254,-9.277,-10.254,0.000
1760221472.375,21.484,-5.859,-11.719,-8.301,0.000
1760221472.379,27.344,-12.207,-11.230,-11.719,0.000
1760221472.383,3.418,-18.066,-10.742,-20.508,0.000
1760221472.387,-4.395,-10.254,-8.789,-19.043,0.000
1760221472.391,-2.930,0.000,-8.789,-8.789,0.000
1760221472.395,10.254,-5.371,-12.207,4.883,0.000
1760221472.399,-13.184,-13.184,-12.207,5.859,0.000
1760221472.403,-9.277,-8.301,-12.695,-16.113,0.000
1760221472.407,39.062,1.465,-10.742,-1.953,0.000
1760221472.410,58.105,-5.371,-9.277,20.996,0.000
1760221472.414,-11.230,-22.461,-12.207,4.395,0.000
1760221472.418,-56.152,-16.602,-17.578,-24.414,0.000
1760221472.422,-19.043,-8.789,-14.648,-16.113,0.000
1760221472.426,21.973,-6.836,-10.254,1.465,0.000
1760221472.430,1.953,-2.441,-11.230,-2.441,0.000
1760221472.434,-18.555,-3.418,-9.766,-4.395,0.000
1760221472.438,-4.395,-8.789,-6.836,1.953,0.000
1760221472.442,11.230,-6.348,-6.836,10.254,0.000
1760221472.446,16.113,-0.977,-6.836,-1.465,0.000
1760221472.450,6.348,-2.441,-7.812,-12.207,0.000
1760221472.453,-4.883,-5.859,-15.137,-4.395,0.000
1760221472.457,22.461,-7.324,-19.531,17.090,0.000
1760221472.461,35.645,-3.906,-21.484,3.906,0.000
1760221472.465,6.348,-3.418,-17.578,-20.020,0.000
1760221472.469,27.832,-4.395,-18.066,-23.926,0.000
1760221472.473,37.598,-2.930,-16.113,-4.883,0.000
1760221472.477,-33.691,-3.418,-5.859,7.812,0.000
1760221472.481,-57.129,-3.418,-13.184,-9.766,0.000
1760221472.485,-32.227,-8.301,-6.836,-2.930,0.000
1760221472.489,-13.184,-8.301,-3.418,13.184,0.000
1760221472.492,22.461,-1.465,-3.418,19.531,0.000
1760221472.496,34.668,-1.953,-0.488,10.742,0.000
1760221472.500,23.438,-3.906,-11.719,21.484,0.000
1760221472.504,30.762,0.488,-13.184,19.531,0.000
1760221472.508,37.598,2.930,-6.836,0.488,0.000
1760221472.512,11.230,3.418,-8.301,6.836,0.000
1760221472.516,-2.930,-0.977,-11.719,-2.930,0.000
1760221472.520,2.930,-3.906,-9.277,-9.277,0.000
1760221472.524,16.602,-0.977,-7.324,12.207,0.000
1760221472.528,0.488,-5.371,-2.930,20.996,0.000
1760221472.532,-7.812,-3.906,0.000,2.441,0.000
1760221472.535,10.254,-4.883,-0.977,-15.137,0.000
1760221472.539,16.602,3.906,0.977,5.859,0.000
1760221472.543,-1.953,-4.395,-2.930,19.043,0.000
1760221472.547,-17.090,-21.973,-12.695,-0.977,0.000
1760221472.551,7.812,-12.695,-8.301,-14.648,0.000
1760221472.555,-14.648,-4.395,-2.930,-8.789,0.000
1760221472.559,-9.766,-4.395,-6.836,23.438,0.000
1760221472.563,52.734,-5.859,-10.254,13.672,0.000
1760221472.567,-4.883,3.906,-13.184,-21.973,0.000
1760221472.571,-55.176,12.695,-10.742,-15.625,0.000
1760221472.575,-4.395,10.254,-3.418,0.977,0.000
1760221472.578,7.812,-0.488,-1.465,-1.953,0.000
1760221472.582,1.465,-4.395,-4.883,-13.184,0.000
1760221472.586,1.953,-8.301,-8.301,-10.742,0.000
1760221472.590,31.738,-9.766,-9.766,0.488,0.000
1760221472.594,26.367,-10.742,-11.719,3.906,0.000
1760221472.598,-24.902,-12.695,-15.137,-12.207,0.000
1760221472.602,-36.621,-9.277,-13.672,-22.949,0.000
1760221472.606,-3.418,-9.766,-8.301,4.395,0.000
1760221472.610,18.555,-13.184,-5.859,10.742,0.000
1760221472.614,-19.043,-16.113,-3.418,-19.531,0.000
1760221472.617,-23.926,-12.207,1.465,-16.113,0.000
1760221472.621,6.836,-7.324,1.465,5.371,0.000
1760221472.625,22.461,-3.418,-1.953,17.578,0.000
1760221472.629,-11.719,3.906,-7.324,-11.230,0.000
1760221472.633,-10.742,1.465,-10.742,-22.949,0.000
1760221472.637,-5.859,-0.488,-13.184,-10.742,0.000
1760221472.641,-22.949,2.930,-12.695,-0.977,0.000
1760221472.645,-8.301,-1.465,-10.254,-8.301,0.000
1760221472.649,-9.766,1.953,-7.324,-19.043,0.000
1760221472.653,-8.789,0.000,-11.230,-17.578,0.000
1760221472.657,-5.371,-3.418,-16.113,-6.348,0.000
1760221472.660,6.348,3.906,-8.789,4.883,0.000
1760221472.664,13.184,9.766,-9.766,-3.906,0.000
1760221472.668,14.160,4.883,-14.160,-10.254,0.000
1760221472.672,18.066,-0.977,-10.742,2.441,0.000
1760221472.676,15.137,-1.953,-15.137,6.836,0.000
1760221472.680,22.461,-7.812,-13.672,-5.859,0.000
1760221472.684,57.617,-15.137,-8.301,-7.812,0.000
1760221472.688,70.312,-11.230,-6.836,1.953,0.000
1760221472.692,6.836,-12.695,-4.883,15.625,0.000
1760221472.696,-42.480,-24.414,-10.742,33.691,0.000
1760221472.699,-28.320,-14.648,-10.742,17.578,0.000
1760221472.703,-20.508,-12.695,-11.719,-3.418,0.000
1760221472.707,-4.395,-18.555,-19.043,6.348,0.000
1760221472.711,19.043,-7.324,-18.066,-6.836,0.000
1760221472.715,5.859,-1.953,-12.207,-5.371,0.000
1760221472.719,-4.883,-4.883,-3.906,3.418,0.000
1760221472.723,21.484,-4.395,-4.395,14.160,0.000
1760221472.727,31.250,-3.906,-9.766,19.531,0.000
1760221472.731,20.020,-5.859,-13.672,2.930,0.000
1760221472.735,13.672,-6.836,-12.695,-1.465,0.000
1760221472.739,2.930,-10.254,-16.113,-9.277,0.000
1760221472.742,-9.766,-12.695,-19.531,6.836,0.000
1760221472.746,-3.906,0.488,-19.531,-6.836,0.000
1760221472.750,2.930,2.930,-17.578,-22.949,0.000
1760221472.754,-19.531,-3.906,-12.695,2.441,0.000
1760221472.758,29.297,-2.441,-8.789,24.902,0.000
1760221472.762,46.875,-1.465,-9.277,6.348,0.000
1760221472.766,-16.602,0.488,-13.184,-10.742,0.000
1760221472.770,-15.137,-0.488,-14.160,-6.348,0.000
1760221472.774,8.301,-8.301,-9.277,10.742,0.000
1760221472.778,9.277,-9.766,-9.277,0.977,0.000
1760221472.782,-7.812,-5.371,-16.113,-25.391,0.000
1760221472.785,-40.039,-12.207,-18.555,-10.742,0.000
1760221472.789,-28.320,-11.719,-12.695,8.789,0.000
1760221472.793,-6.836,-0.977,-5.859,-0.488,0.000
1760221472.797,-11.230,-3.418,-6.348,-14.160,0.000
1760221472.801,12.207,-11.230,-9.277,-16.113,0.000
1760221472.805,17.090,-6.348,-11.230,0.000,0.000
1760221472.809,3.418,5.859,-12.695,16.113,0.000
1760221472.813,5.859,12.207,-11.719,9.766,0.000
1760221472.817,0.000,6.836,-18.066,-3.418,0.000
1760221472.821,19.043,-2.441,-20.508,2.441,0.000
1760221472.824,64.453,0.977,-10.742,23.926,0.000
1760221472.828,20.508,2.441,-6.836,5.859,0.000
1760221472.832,-26.367,-7.812,-13.184,-11.230,0.000
1760221472.836,-6.348,-14.648,-15.625,-14.160,0.000
1760221472.840,26.367,-4.395,-14.160,-6.836,0.000
1760221472.844,40.039,6.836,-15.625,4.395,0.000
1760221472.848,-11.719,-2.441,-20.996,-3.418,0.000
1760221472.852,-38.086,-13.184,-23.438,-7.324,0.000
1760221472.856,1.953,-5.371,-23.438,-1.465,0.000
1760221472.860,34.180,-0.488,-23.926,14.648,0.000
1760221472.864,4.395,-9.277,-23.438,9.766,0.000
1760221472.867,2.441,-13.672,-18.555,-12.695,0.000
1760221472.871,17.090,-3.418,-16.113,-6.836,0.000
1760221472.875,17.578,-6.348,-15.625,22.949,0.000
1760221472.879,9.277,-13.184,-12.207,13.184,0.000
1760221472.883,-22.461,-9.766,-17.090,-18.066,0.000
1760221472.887,-4.883,-5.371,-15.137,-5.371,0.000
1760221472.891,31.250,-7.812,-12.695,12.695,0.000
1760221472.895,14.648,-8.789,-14.648,2.441,0.000
1760221472.899,-0.488,-2.930,-11.719,-7.812,0.000
1760221472.903,3.418,-9.766,-16.113,-15.625,0.000
1760221472.907,2.930,-14.648,-15.625,5.859,0.000
1760221472.910,-3.906,-12.207,-15.625,17.090,0.000
1760221472.914,-16.602,-6.348,-20.020,-10.742,0.000
1760221472.918,-8.789,-3.906,-19.043,-5.371,0.000
1760221472.922,25.391,0.000,-23.926,19.043,0.000
1760221472.926,60.059,-2.441,-33.203,15.625,0.000
1760221472.930,16.602,-6.348,-34.180,-9.277,0.000
1760221472.934,-29.297,-1.465,-31.738,-8.301,0.000
1760221472.938,-16.113,-9.766,-32.227,-0.977,0.000
1760221472.942,-8.789,-17.578,-26.367,5.859,0.000
1760221472.946,4.883,-12.207,-20.020,3.906,0.000
1760221472.950,17.090,-13.184,-19.531,9.766,0.000
1760221472.953,23.438,-22.461,-18.066,24.902,0.000
1760221472.957,60.059,-15.625,-17.090,24.414,0.000
1760221472.961,25.879,-8.301,-14.648,16.113,0.000
1760221472.965,-37.598,-11.719,-13.672,9.277,0.000
1760221472.969,-8.789,-11.719,-17.578,4.395,0.000
1760221472.973,2.930,-11.230,-17.090,-2.930,0.000
1760221472.977,-9.277,-7.324,-18.066,-7.812,0.000
1760221472.981,10.742,-2.930,-16.113,2.930,0.000
1760221472.985,20.508,-4.395,-11.719,6.348,0.000
1760221472.989,11.230,-1.953,-14.160,-8.789,0.000
1760221472.992,33.691,1.953,-22.461,6.836,0.000
1760221472.996,31.738,12.695,-5.371,3.906,0.000
1760221473.000,1.465,16.602,10.254,-6.348,0.000
1760221473.004,8.789,9.766,-3.906,-8.301,0.000
1760221473.008,76.660,26.367,-18.066,-3.418,0.000
1760221473.012,18.555,32.715,3.418,-10.742,0.000
1760221473.016,-76.172,26.367,17.578,-28.809,0.000
1760221473.020,-72.266,17.578,1.953,-36.621,0.000
1760221473.024,-49.805,33.691,8.301,-32.715,0.000
1760221473.028,-30.762,50.293,19.531,-45.898,0.000
1760221473.031,-54.688,41.016,29.785,-90.332,0.000
1760221473.035,-113.770,44.922,30.762,-124.023,0.000
1760221473.039,-177.246,56.152,37.598,-128.418,0.000
1760221473.043,-188.965,68.359,50.781,-138.672,0.000
1760221473.047,-174.805,81.055,66.895,-164.062,0.000
1760221473.051,-186.523,99.609,67.383,-181.641,0.000
1760221473.055,-182.129,107.422,61.035,-188.965,0.000
1760221473.059,-154.785,107.422,59.082,-170.898,0.000
1760221473.063,-171.875,108.887,56.641,-170.410,0.000
1760221473.067,-170.898,114.258,46.875,-177.246,0.000
1760221473.071,-112.793,104.004,38.086,-141.602,0.000
1760221473.074,-82.520,77.148,40.039,-98.633,0.000
1760221473.078,-120.117,74.707,37.598,-98.633,0.000
1760221473.082,-115.723,60.547,29.297,-97.168,0.000
1760221473.086,-102.051,43.457,22.949,-82.520,0.000
1760221473.090,-81.055,29.785,14.648,-42.480,0.000
1760221473.094,-48.340,18.555,9.766,-20.020,0.000
1760221473.098,-9.277,18.066,9.766,-23.926,0.000
1760221473.102,9.277,16.602,-1.465,-20.996,0.000
1760221473.106,-2.441,15.137,-6.836,-7.324,0.000
1760221473.110,12.207,7.812,-7.324,26.855,0.000
1760221473.114,-2.441,-11.719,-16.602,18.555,0.000
1760221473.117,-12.695,-9.766,-19.531,10.742,0.000
1760221473.121,14.648,-2.930,-14.160,26.367,0.000
1760221473.125,62.500,-14.648,-17.090,30.273,0.000
1760221473.129,44.922,-16.602,-28.320,20.020,0.000
1760221473.133,-19.531,-19.531,-33.203,9.766,0.000
1760221473.137,-32.227,-25.391,-30.273,11.719,0.000
1760221473.141,20.020,-25.391,-26.367,20.996,0.000
1760221473.145,42.969,-25.391,-31.738,29.297,0.000
1760221473.149,38.574,-28.320,-33.203,23.926,0.000
1760221473.153,34.180,-32.227,-29.785,24.902,0.000
1760221473.156,43.457,-37.598,-26.367,42.969,0.000
1760221473.160,80.566,-35.645,-30.762,49.805,0.000
1760221473.164,83.008,-33.691,-34.180,43.945,0.000
1760221473.168,11.230,-34.180,-31.250,19.531,0.000
1760221473.172,-11.719,-36.133,-32.715,16.602,0.000
1760221473.176,26.855,-37.109,-35.645,31.250,0.000
1760221473.180,40.039,-35.645,-37.598,29.297,0.000
1760221473.184,48.340,-26.855,-32.227,28.320,0.000
1760221473.188,61.035,-24.902,-28.320,35.156,0.000
1760221473.192,71.289,-30.762,-26.855,56.152,0.000
1760221473.196,27.832,-30.762,-24.414,45.410,0.000
1760221473.199,-7.324,-35.156,-22.461,21.484,0.000
1760221473.203,0.000,-37.598,-23.926,22.949,0.000
1760221473.207,24.902,-41.504,-28.320,42.480,0.000
1760221473.211,32.715,-37.598,-28.320,30.762,0.000
1760221473.215,36.133,-32.227,-24.414,11.719,0.000
1760221473.219,36.621,-34.668,-28.320,14.648,0.000
1760221473.223,15.625,-31.250,-30.762,36.133,0.000
1760221473.227,12.695,-28.320,-26.367,54.199,0.000
1760221473.231,18.555,-23.926,-21.973,28.809,0.000
1760221473.235,16.113,-25.391,-20.996,15.625,0.000
1760221473.238,25.879,-26.367,-23.438,27.344,0.000
1760221473.242,60.547,-24.414,-21.973,45.410,0.000
1760221473.246,62.988,-24.414,-16.113,29.785,0.000
1760221473.250,47.852,-24.902,-21.484,34.180,0.000
1760221473.254,48.340,-23.926,-23.438,46.387,0.000
1760221473.258,41.016,-16.602,-16.602,26.367,0.000
1760221473.262,31.738,-16.602,-13.184,23.438,0.000
1760221473.266,9.277,-28.809,-20.020,16.602,0.000
1760221473.270,10.254,-31.250,-15.137,23.926,0.000
1760221473.274,42.480,-19.531,-14.160,33.203,0.000
1760221473.278,0.000,-10.742,-20.996,23.438,0.000
1760221473.281,0.000,-14.160,-20.996,11.719,0.000
1760221473.285,0.000,-18.555,-31.250,14.160,0.000
1760221473.289,0.000,-23.926,-32.715,32.227,0.000
1760221473.293,0.000,-27.344,-25.879,44.922,0.000
1760221473.297,0.000,-18.555,-32.715,24.902,0.000
1760221473.301,0.000,-13.184,-39.551,-2.441,0.000
1760221473.305,0.000,-16.113,-45.410,-3.906,0.000
1760221473.309,0.000,-12.207,-43.945,11.230,0.000
1760221473.313,0.000,-14.648,-43.945,1.465,0.000
1760221473.317,0.000,-13.672,-45.410,-15.137,0.000
1760221473.320,0.000,-9.766,-45.898,0.488,0.000
1760221473.324,26.855,-11.719,-50.293,10.254,0.000
1760221473.328,27.344,-10.254,-47.852,1.953,0.000
1760221473.332,-1.465,-3.418,-44.434,-10.742,0.000
1760221473.336,25.879,3.418,-41.016,-1.465,0.000
1760221473.340,25.879,-11.230,-39.062,13.184,0.000
1760221473.344,10.742,-18.066,-41.504,8.301,0.000
1760221473.348,31.250,-10.742,-42.969,4.883,0.000
1760221473.352,9.277,0.977,-37.109,-7.812,0.000
1760221473.356,3.418,-1.465,-29.785,20.996,0.000
1760221473.360,16.113,-10.742,-33.203,31.250,0.000
1760221473.363,13.184,0.000,-31.250,-1.465,0.000
1760221473.367,18.555,7.324,-26.367,2.441,0.000
1760221473.371,23.926,-0.488,-38.574,10.254,0.000
1760221473.375,44.434,-7.324,-34.668,17.578,0.000
1760221473.379,18.066,-10.742,-28.809,-8.301,0.000
1760221473.383,-16.113,-10.742,-29.785,-21.973,0.000
1760221473.387,12.207,-11.230,-25.879,-2.930,0.000
1760221473.391,47.363,-9.766,-30.762,27.832,0.000
1760221473.395,10.742,-2.930,-32.227,21.484,0.000
1760221473.399,-17.578,0.488,-29.785,-3.418,0.000
1760221473.403,31.250,-5.859,-29.785,18.555,0.000
1760221473.406,29.297,-6.348,-23.438,23.438,0.000
1760221473.410,-4.395,-8.301,-20.996,-6.348,0.000
1760221473.414,-20.020,-8.301,-20.508,-15.625,0.000
1760221473.418,-7.324,-7.812,-19.043,-2.441,0.000
1760221473.422,3.418,1.953,-17.578,11.230,0.000
1760221473.426,24.414,4.395,-23.926,13.184,0.000
1760221473.430,33.691,-5.859,-33.691,-0.977,0.000
1760221473.434,32.227,-8.301,-33.691,-10.742,0.000
1760221473.438,-5.371,-6.348,-35.645,-13.184,0.000
1760221473.442,-7.812,-6.348,-31.738,0.000,0.000
1760221473.446,15.137,-7.812,-19.043,10.742,0.000
1760221473.449,-8.301,-13.184,-15.625,10.254,0.000
1760221473.453,-3.418,-6.348,-18.066,-4.395,0.000
1760221473.457,4.395,2.930,-21.484,3.906,0.000
1760221473.461,-16.113,-2.930,-24.902,0.000,0.000
1760221473.465,-19.043,-4.395,-25.391,-16.602,0.000
1760221473.469,-1.465,0.977,-27.344,-13.184,0.000
1760221473.473,14.160,4.883,-23.438,10.254,0.000
1760221473.477,9.766,-3.906,-18.555,14.648,0.000
1760221473.481,-12.207,-10.254,-17.090,3.418,0.000
1760221473.485,29.297,-14.648,-10.254,9.277,0.000
1760221473.488,47.363,-16.602,-6.348,20.020,0.000
1760221473.492,2.930,-11.719,-7.812,30.762,0.000
1760221473.496,-23.926,-7.812,-11.719,7.324,0.000
1760221473.500,-24.414,1.953,-12.695,-8.301,0.000
1760221473.504,7.324,-0.488,-9.277,5.859,0.000
1760221473.508,40.527,-2.441,-9.277,25.391,0.000
1760221473.512,41.504,4.395,-6.836,3.418,0.000
1760221473.516,1.465,-4.883,-10.254,-26.367,0.000
1760221473.520,14.160,-5.859,-18.066,-8.301,0.000
1760221473.524,35.645,-3.418,-9.766,15.137,0.000
1760221473.528,-15.137,-5.371,1.465,16.113,0.000
1760221473.531,-30.273,-6.348,-3.418,1.953,0.000
1760221473.535,0.000,-8.301,-13.184,0.488,0.000
1760221473.539,17.090,-4.395,-15.625,26.367,0.000
1760221473.543,28.320,5.859,-10.742,12.207,0.000
1760221473.547,51.270,-0.977,-13.184,-10.742,0.000
1760221473.551,87.402,-6.836,-20.996,-14.648,0.000
1760221473.555,17.578,-0.488,-15.137,-12.695,0.000
1760221473.559,-76.660,-5.371,-0.977,5.371,0.000
1760221473.563,-48.340,-11.719,-6.836,-2.441,0.000
1760221473.567,-23.926,-6.348,-17.578,-14.160,0.000
1760221473.570,-8.301,-7.812,-13.672,-6.836,0.000
1760221473.574,18.066,-11.719,-11.719,9.277,0.000
1760221473.578,43.457,-11.230,-11.230,13.184,0.000
1760221473.582,56.152,-8.301,-16.602,11.719,0.000
1760221473.586,40.039,-8.301,-19.043,3.906,0.000
1760221473.590,26.855,-3.418,-16.602,13.184,0.000
1760221473.594,4.883,-0.488,-18.555,11.719,0.000
1760221473.598,2.930,-3.906,-18.066,-13.184,0.000
1760221473.602,14.648,3.418,-14.648,-11.719,0.000
1760221473.606,33.203,-3.906,-15.625,10.254,0.000
1760221473.610,43.945,-15.137,-22.949,17.578,0.000
1760221473.613,51.270,-4.883,-20.508,4.395,0.000
1760221473.617,61.035,-5.371,-12.695,1.465,0.000
1760221473.621,8.789,-8.301,-12.695,9.277,0.000
1760221473.625,-10.742,-9.766,-19.043,29.297,0.000
1760221473.629,29.785,-11.230,-19.531,16.602,0.000
1760221473.633,16.602,-7.812,-16.602,-2.441,0.000
1760221473.637,-20.020,-3.906,-14.648,9.766,0.000
1760221473.641,12.207,-5.859,-12.695,37.109,0.000
1760221473.645,27.832,-7.812,-12.207,28.320,0.000
1760221473.649,12.695,-7.324,-9.277,-8.789,0.000
1760221473.653,6.348,-4.883,-14.648,-11.719,0.000
1760221473.656,35.645,-6.348,-16.113,11.230,0.000
1760221473.660,51.758,0.000,-10.254,13.672,0.000
1760221473.664,21.973,5.371,-9.766,-3.906,0.000
1760221473.668,24.414,-0.977,-10.254,-10.254,0.000
1760221473.672,32.227,-0.488,-10.742,6.836,0.000
1760221473.676,6.348,-4.883,-16.602,8.789,0.000
1760221473.680,-8.301,-6.348,-22.949,-14.648,0.000
1760221473.684,15.137,-8.301,-19.531,-2.441,0.000
1760221473.688,29.785,-16.602,-16.602,12.695,0.000
1760221473.692,-3.906,-10.254,-13.184,12.695,0.000
1760221473.695,-26.367,-8.301,-14.648,6.348,0.000
1760221473.699,-13.672,-13.672,-19.531,-0.488,0.000
1760221473.703,-6.348,-12.207,-20.996,0.977,0.000
1760221473.707,-1.953,-5.371,-20.508,1.465,0.000
1760221473.711,6.836,-2.441,-23.926,-2.441,0.000
1760221473.715,13.184,-7.324,-31.738,-10.742,0.000
1760221473.719,19.043,-11.230,-28.320,-2.441,0.000
1760221473.723,16.113,-8.789,-23.926,23.438,0.000
1760221473.727,25.879,-4.883,-22.461,20.508,0.000
1760221473.731,54.688,-11.230,-21.973,7.812,0.000
1760221473.735,18.555,-14.160,-26.367,2.441,0.000
1760221473.738,5.371,-11.719,-25.391,-17.578,0.000
1760221473.742,14.160,-7.324,-24.902,-4.395,0.000
1760221473.746,-31.738,-2.930,-23.926,0.488,0.000
1760221473.750,-28.809,-6.348,-19.531,-12.695,0.000
1760221473.754,-15.625,-10.742,-13.672,-8.301,0.000
1760221473.758,5.859,-11.719,-8.789,11.719,0.000
1760221473.762,27.832,-13.184,-10.254,13.672,0.000
1760221473.766,30.762,-13.672,-12.207,-1.465,0.000
1760221473.770,35.156,-3.906,-9.766,-14.648,0.000
1760221473.774,41.016,-2.930,-8.301,6.836,0.000
1760221473.777,11.230,-11.230,-11.719,22.949,0.000
1760221473.781,-13.672,-7.324,-11.719,-2.930,0.000
1760221473.785,-1.953,1.953,-7.812,-14.648,0.000
1760221473.789,9.766,1.465,-11.719,4.395,0.000
1760221473.793,20.508,1.465,-10.254,9.766,0.000
1760221473.797,72.266,0.977,-5.371,-9.766,0.000
1760221473.801,45.410,3.906,-6.348,-11.230,0.000
1760221473.805,-30.762,-2.441,-8.789,-1.953,0.000
1760221473.809,-19.043,-5.859,-4.883,8.789,0.000
1760221473.813,-5.371,-4.883,-1.953,-2.930,0.000
1760221473.817,-19.531,-4.395,-7.812,-21.484,0.000
1760221473.820,-13.184,-11.230,-11.230,5.859,0.000
1760221473.824,17.578,-22.461,-12.695,15.625,0.000
1760221473.828,-0.977,-20.020,-12.207,-22.461,0.000
1760221473.832,-0.977,-20.020,-10.254,-23.926,0.000
1760221473.836,35.156,-20.020,-10.742,-9.277,0.000
1760221473.840,21.484,-18.066,-15.137,0.000,0.000
1760221473.844,-14.648,-17.578,-16.113,6.836,0.000
1760221473.848,-36.133,-17.578,-12.207,-2.441,0.000
1760221473.852,-24.902,-14.160,-13.672,-12.695,0.000
1760221473.856,-7.812,-13.672,-23.438,-10.742,0.000
1760221473.860,7.324,-16.602,-26.855,2.930,0.000
1760221473.863,12.207,-7.812,-26.367,-5.371,0.000
1760221473.867,15.137,-8.301,-31.250,-17.578,0.000
1760221473.871,31.250,-6.348,-30.762,-2.930,0.000
1760221473.875,4.883,3.906,-31.738,8.789,0.000
1760221473.879,-29.297,6.836,-29.297,-1.953,0.000
1760221473.883,-7.812,2.441,-19.531,-14.160,0.000
1760221473.887,-9.766,1.465,-19.531,-5.859,0.000
1760221473.891,-6.348,-1.465,-19.531,14.160,0.000
1760221473.895,10.742,-5.371,-21.973,1.465,0.000
1760221473.899,16.113,-6.348,-27.344,-6.348,0.000
1760221473.902,9.277,-8.789,-25.391,-11.230,0.000
1760221473.906,30.762,-10.742,-23.438,-2.930,0.000
1760221473.910,77.637,-5.371,-25.879,15.137,0.000
1760221473.914,19.043,1.953,-27.344,10.742,0.000
1760221473.918,-49.805,4.395,-28.809,-4.883,0.000
1760221473.922,-19.043,4.883,-26.855,9.766,0.000
1760221473.926,33.203,-3.906,-29.297,32.227,0.000
1760221473.930,27.344,-8.789,-30.762,8.301,0.000
1760221473.934,29.785,3.906,-26.855,-4.395,0.000
1760221473.938,6.348,-4.883,-24.414,18.555,0.000
1760221473.942,-20.020,-19.043,-21.484,32.715,0.000
1760221473.945,-6.836,-9.277,-26.367,20.020,0.000
1760221473.949,1.953,-0.488,-26.367,9.277,0.000
1760221473.953,12.207,-5.371,-20.020,6.348,0.000
1760221473.957,8.789,-17.090,-23.438,31.250,0.000
1760221473.961,8.789,-20.020,-25.391,16.113,0.000
1760221473.965,-1.465,-18.555,-19.043,-9.766,0.000
1760221473.969,0.488,-20.996,-18.066,4.883,0.000
1760221473.973,16.602,-26.367,-18.066,16.602,0.000
1760221473.977,30.762,-27.344,-19.043,7.324,0.000
1760221473.981,26.855,-24.414,-23.926,-9.277,0.000
1760221473.984,-16.602,-21.973,-21.973,1.953,0.000
1760221473.988,-21.484,-20.508,-20.508,6.836,0.000
1760221473.992,12.207,-19.043,-21.484,1.953,0.000
1760221473.996,4.395,-22.949,-22.949,-6.836,0.000
1760221474.000,10.742,-26.367,-28.809,-2.441,0.000
1760221474.004,19.043,-30.273,-27.344,9.277,0.000
1760221474.008,5.859,-22.949,-21.484,4.883,0.000
1760221474.012,-2.930,-23.926,-18.066,-8.789,0.000
1760221474.016,5.859,-26.855,-19.043,-17.578,0.000
1760221474.020,17.090,-20.508,-23.926,-2.441,0.000
1760221474.023,40.039,-19.531,-22.461,24.414,0.000
1760221474.027,0.000,-19.043,-14.160,10.254,0.000
1760221474.031,0.000,-18.066,-19.043,-6.836,0.000
1760221474.035,0.000,-21.484,-21.973,-2.930,0.000
1760221474.039,0.000,-20.020,-14.648,12.207,0.000
1760221474.043,0.000,-17.090,-19.531,18.555,0.000
1760221474.047,0.000,-29.785,-27.832,1.953,0.000
1760221474.051,0.000,-23.438,-24.902,-13.672,0.000
1760221474.055,0.000,-6.836,-20.996,-10.742,0.000
1760221474.059,0.000,-17.090,-23.926,12.207,0.000
1760221474.063,0.000,-22.461,-27.344,8.789,0.000
1760221474.066,0.000,-12.695,-29.297,-1.953,0.000
1760221474.070,0.000,-5.371,-26.367,4.395,0.000
1760221474.074,27.832,-3.906,-20.020,14.160,0.000
1760221474.078,20.020,-10.254,-17.090,10.742,0.000
1760221474.082,-31.738,-14.160,-15.625,-1.465,0.000
1760221474.086,-20.508,-13.184,-12.695,-1.465,0.000
1760221474.090,28.320,-17.090,-8.301,10.742,0.000
1760221474.094,45.410,-15.137,-7.324,12.207,0.000
1760221474.098,8.301,-10.742,-12.695,-6.836,0.000
1760221474.102,-8.301,-9.766,-14.648,-21.973,0.000
1760221474.106,32.227,-6.348,-15.137,21.484,0.000
1760221474.109,52.734,-9.277,-8.789,61.523,0.000
1760221474.113,0.000,-16.602,-2.930,19.531,0.000
1760221474.117,-47.852,-20.996,-1.465,-9.277,0.000
1760221474.121,-36.621,-29.785,2.441,-21.973,0.000
1760221474.125,0.488,-36.621,4.883,-13.672,0.000
1760221474.129,11.230,-31.738,4.395,-13.184,0.000
1760221474.133,16.113,-29.297,0.000,-23.926,0.000
1760221474.137,-19.043,-26.855,-3.418,-17.090,0.000
1760221474.141,-25.391,-24.902,-1.953,7.324,0.000
1760221474.145,9.766,-26.855,2.441,9.277,0.000
1760221474.149,11.230,-26.367,1.953,-2.441,0.000
1760221474.152,-2.441,-32.715,-0.488,2.441,0.000
1760221474.156,-4.883,-30.762,6.348,8.789,0.000
1760221474.160,-16.602,-17.090,5.859,-3.418,0.000
1760221474.164,-3.418,-12.695,1.465,-12.207,0.000
1760221474.168,-6.836,-15.625,-1.465,-4.883,0.000
1760221474.172,14.648,-15.137,-2.441,13.184,0.000
1760221474.176,39.551,-12.207,-8.301,21.973,0.000
1760221474.180,-16.113,-16.113,-14.648,0.488,0.000
1760221474.184,-10.254,-13.184,-12.695,1.465,0.000
1760221474.188,18.066,-10.742,-17.090,15.625,0.000
1760221474.192,9.277,-10.742,-14.160,13.184,0.000
1760221474.195,-10.742,-12.207,-10.254,-1.953,0.000
1760221474.199,-2.930,-14.648,-9.277,5.371,0.000
1760221474.203,-2.441,-8.301,-7.812,5.371,0.000
1760221474.207,5.859,-9.766,-9.277,13.184,0.000
1760221474.211,22.461,-16.602,-9.766,5.859,0.000
1760221474.215,0.977,-9.277,-9.277,-8.301,0.000
1760221474.219,-9.277,-8.301,-2.441,8.301,0.000
1760221474.223,-2.930,-19.043,-1.953,34.668,0.000
1760221474.227,-2.441,-21.484,-6.836,20.508,0.000
1760221474.231,-1.465,-18.066,-5.859,-9.766,0.000
1760221474.234,20.020,-16.113,-6.348,-9.277,0.000
1760221474.238,60.547,-16.602,-10.742,2.441,0.000
1760221474.242,32.227,-20.508,-19.043,20.508,0.000
1760221474.246,-36.133,-21.484,-11.230,2.930,0.000
1760221474.250,-46.387,-17.090,-1.465,-12.695,0.000
1760221474.254,-31.250,-17.578,-10.254,-5.859,0.000
1760221474.258,-11.230,-21.484,-11.230,2.441,0.000
1760221474.262,-8.301,-13.672,-6.836,-12.695,0.000
1760221474.266,-4.883,-8.301,-6.836,-23.438,0.000
1760221474.270,20.996,-17.090,-2.441,-5.371,0.000
1760221474.274,46.875,-15.137,-10.254,4.883,0.000
1760221474.277,5.859,-8.789,-16.602,1.465,0.000
1760221474.281,-44.922,-11.230,-6.836,-15.137,0.000
1760221474.285,-38.086,-17.090,-5.859,-2.441,0.000
1760221474.289,-2.930,-12.695,-9.766,16.602,0.000
1760221474.293,4.883,-2.441,-10.742,13.184,0.000
1760221474.297,-15.137,-5.371,-9.766,8.301,0.000
1760221474.301,-8.301,-0.488,-7.324,-6.348,0.000
1760221474.305,4.395,8.301,-3.906,-3.418,0.000
1760221474.309,14.160,-2.930,-3.906,18.066,0.000
1760221474.313,27.344,-15.137,-2.441,12.207,0.000
1760221474.316,22.949,-6.348,-3.906,-5.371,0.000
1760221474.320,0.977,-1.953,-11.719,-3.906,0.000
1760221474.324,1.465,-0.488,-14.160,12.695,0.000
1760221474.328,-7.812,-1.465,-8.301,17.090,0.000
1760221474.332,-6.836,-10.742,-4.395,24.902,0.000
1760221474.336,11.230,-3.418,-8.789,18.555,0.000
1760221474.340,22.461,9.277,-10.254,16.602,0.000
1760221474.344,29.297,5.859,-13.184,12.695,0.000
1760221474.348,13.184,6.348,-12.695,-4.883,0.000
1760221474.352,-20.996,-0.977,-8.789,-4.395,0.000
1760221474.356,-25.879,-7.324,-4.883,7.324,0.000
1760221474.359,-1.953,-4.395,-0.977,20.996,0.000
1760221474.363,5.371,-12.207,-10.254,-3.418,0.000
1760221474.367,-0.488,-7.324,-14.648,-10.254,0.000
1760221474.371,-3.906,-2.930,-9.277,2.930,0.000
1760221474.375,65.918,-8.789,-9.766,14.160,0.000
1760221474.379,68.359,-4.883,-13.672,9.277,0.000
1760221474.383,-35.645,2.441,-15.137,8.789,0.000
1760221474.387,-29.785,6.348,-20.996,-13.184,0.000
1760221474.391,15.137,6.348,-18.066,-19.043,0.000
1760221474.395,7.324,3.906,-12.207,-1.953,0.000
1760221474.398,-18.555,1.953,-16.113,-13.672,0.000
1760221474.402,1.465,6.348,-13.672,-9.277,0.000
1760221474.406,27.344,2.930,-14.160,14.160,0.000
1760221474.410,3.906,-1.465,-16.113,16.602,0.000
1760221474.414,-12.695,1.465,-11.719,-6.836,0.000
1760221474.418,3.418,-6.348,-16.602,-12.695,0.000
1760221474.422,30.762,-9.766,-23.438,3.906,0.000
1760221474.426,11.230,-10.742,-24.414,9.766,0.000
1760221474.430,-8.301,-11.230,-26.367,-10.742,0.000
1760221474.434,15.137,-7.324,-20.996,-17.090,0.000
1760221474.438,31.738,-7.324,-19.043,2.930,0.000
1760221474.441,26.367,-9.277,-14.648,7.812,0.000
1760221474.445,-6.836,-3.906,-16.602,-2.441,0.000
1760221474.449,-13.184,-12.207,-14.648,-1.465,0.000
1760221474.453,18.555,-15.137,-10.742,-14.160,0.000
1760221474.457,24.414,-6.348,-14.648,-7.324,0.000
1760221474.461,-3.418,-7.324,-16.113,1.953,0.000
1760221474.465,-21.973,-10.742,-18.066,-8.301,0.000
1760221474.469,-8.301,-13.672,-17.090,-11.230,0.000
1760221474.473,40.039,-13.184,-16.602,1.953,0.000
1760221474.477,14.648,-9.277,-14.648,5.371,0.000
1760221474.480,-35.645,-10.742,-12.207,13.672,0.000
1760221474.484,-5.859,-14.160,-14.648,5.371,0.000
1760221474.488,21.484,-4.883,-20.508,-5.371,0.000
1760221474.492,26.367,-1.465,-14.160,15.625,0.000
1760221474.496,0.000,-13.184,-12.695,10.254,0.000
1760221474.500,0.000,-10.742,-21.973,-4.395,0.000
1760221474.504,0.000,-6.348,-20.996,-0.488,0.000
1760221474.508,0.000,0.488,-19.043,15.625,0.000
1760221474.512,0.000,6.348,-18.555,-2.441,0.000
1760221474.516,0.000,-0.977,-15.137,-7.324,0.000
1760221474.520,0.000,1.953,-20.020,-2.441,0.000
1760221474.523,0.000,3.418,-20.996,7.812,0.000
1760221474.527,0.000,-5.859,-18.555,32.715,0.000
1760221474.531,0.000,9.766,-26.855,17.090,0.000
1760221474.535,0.000,20.020,-31.738,-16.113,0.000
1760221474.539,0.000,12.207,-28.320,-10.254,0.000
1760221474.543,16.113,16.602,-30.273,-1.465,0.000
1760221474.547,9.277,23.438,-38.574,-16.602,0.000
1760221474.551,-14.648,29.297,-42.969,-21.484,0.000
1760221474.555,6.836,26.367,-40.039,-7.324,0.000
1760221474.559,27.832,17.090,-38.574,-0.977,0.000
1760221474.562,1.953,9.277,-40.039,-14.160,0.000
1760221474.566,-7.812,17.090,-39.551,-14.648,0.000
1760221474.570,7.324,15.137,-40.527,5.859,0.000
1760221474.574,35.645,9.766,-36.621,18.066,0.000
1760221474.578,23.926,16.602,-34.180,-7.812,0.000
1760221474.582,-17.090,5.859,-38.574,-20.508,0.000
1760221474.586,-2.930,4.883,-40.527,-22.461,0.000
1760221474.590,8.301,9.277,-37.109,-3.906,0.000
1760221474.594,-12.207,2.930,-30.273,0.488,0.000
1760221474.598,1.465,4.395,-26.367,-9.277,0.000
1760221474.601,17.090,3.906,-28.320,-13.184,0.000
1760221474.605,11.719,-2.930,-27.832,-6.836,0.000
1760221474.609,9.766,-5.371,-25.879,3.906,0.000
1760221474.613,3.418,-0.977,-34.668,-9.766,0.000
1760221474.617,3.418,-4.883,-32.715,-0.488,0.000
1760221474.621,12.695,-3.418,-24.414,13.672,0.000
1760221474.625,16.602,1.953,-26.855,12.695,0.000
1760221474.629,21.484,6.348,-31.250,-0.977,0.000
1760221474.633,6.348,7.812,-22.949,-3.906,0.000
1760221474.637,2.441,-0.488,-12.207,14.160,0.000
1760221474.641,27.832,-0.977,-16.602,19.043,0.000
1760221474.644,11.230,0.000,-18.066,1.953,0.000
1760221474.648,16.113,-12.695,-22.461,-0.488,0.000
1760221474.652,19.531,-13.184,-24.902,9.277,0.000
1760221474.656,-7.324,-3.906,-18.066,5.859,0.000
1760221474.660,-26.855,-12.207,-21.484,7.812,0.000
1760221474.664,-10.254,-14.160,-21.973,-4.395,0.000
1760221474.668,-14.648,-9.766,-15.137,-21.484,0.000
1760221474.672,-14.648,-17.090,-18.066,-6.348,0.000
1760221474.676,18.066,-14.160,-18.066,6.836,0.000
1760221474.680,32.715,-5.859,-18.066,-11.230,0.000
1760221474.683,4.395,-3.906,-18.555,-14.648,0.000
1760221474.687,-20.020,-6.348,-17.090,-0.977,0.000
1760221474.691,-27.344,-11.719,-19.531,3.418,0.000
1760221474.695,-19.043,-6.836,-22.949,-11.230,0.000
1760221474.699,-27.344,-8.301,-24.414,-28.809,0.000
1760221474.703,-6.836,-14.160,-20.508,0.488,0.000
1760221474.707,23.926,-17.578,-23.926,27.832,0.000
1760221474.711,16.602,-16.113,-24.414,2.930,0.000
1760221474.715,47.852,-8.301,-22.949,-17.090,0.000
1760221474.719,27.832,-2.441,-25.391,-21.973,0.000
1760221474.722,-29.297,-7.812,-18.066,-4.883,0.000
1760221474.726,-30.762,-5.859,-12.695,8.301,0.000
1760221474.730,-25.391,-1.465,-7.812,-0.488,0.000
1760221474.734,-17.090,-6.348,-9.766,-13.672,0.000
1760221474.738,11.719,-8.301,-17.090,-3.906,0.000
1760221474.742,40.039,-9.277,-15.625,12.695,0.000
1760221474.746,23.438,-9.766,-17.090,-5.859,0.000
1760221474.750,14.648,-8.789,-21.484,3.906,0.000
1760221474.754,-5.371,-14.648,-18.555,20.508,0.000
1760221474.758,-12.207,-10.254,-8.301,0.000,0.000
1760221474.762,0.977,-2.441,-4.395,-9.277,0.000
1760221474.765,-10.254,-10.254,-10.254,-2.930,0.000
1760221474.769,-17.578,-11.719,-10.742,-7.812,0.000
1760221474.773,18.066,-12.207,-6.836,5.859,0.000
1760221474.777,36.621,-18.066,-8.789,18.066,0.000
1760221474.781,24.414,-14.160,-9.766,4.395,0.000
1760221474.785,26.367,-12.695,-5.859,-8.301,0.000
1760221474.789,13.672,-18.555,-3.906,5.371,0.000
1760221474.793,11.719,-16.602,-5.371,22.949,0.000
1760221474.797,13.184,-5.371,-10.254,-2.930,0.000
1760221474.801,20.996,-3.418,-16.113,-16.602,0.000
1760221474.805,9.766,-13.184,-17.578,14.648,0.000
1760221474.808,10.254,-16.602,-16.602,23.438,0.000
1760221474.812,-4.883,-23.926,-19.531,-4.395,0.000
1760221474.816,-5.371,-19.043,-23.438,-15.137,0.000
1760221474.820,25.879,-11.230,-18.066,-9.277,0.000
1760221474.824,0.000,-18.066,-13.184,10.742,0.000
1760221474.828,0.000,-19.043,-16.113,20.020,0.000
1760221474.832,0.000,-15.625,-17.578,-3.906,0.000
1760221474.836,0.000,-5.859,-20.508,3.906,0.000
1760221474.840,0.000,-5.859,-17.090,33.203,0.000
1760221474.844,0.000,-17.578,-13.672,8.301,0.000
1760221474.848,0.000,-11.719,-14.160,-26.367,0.000
1760221474.851,0.000,-3.906,-13.672,-30.273,0.000
1760221474.855,0.000,-17.578,-13.184,8.301,0.000
1760221474.859,0.000,-16.602,-11.719,19.531,0.000
1760221474.863,0.000,-5.859,-14.160,-8.789,0.000
1760221474.867,0.000,-16.113,-20.996,0.977,0.000
1760221474.871,16.602,-7.324,-23.926,9.766,0.000
1760221474.875,24.414,-0.977,-22.949,1.953,0.000
1760221474.879,26.367,-7.812,-23.926,-10.742,0.000
1760221474.883,5.371,-10.254,-25.391,-1.953,0.000
1760221474.887,-17.578,-17.090,-24.902,2.930,0.000
1760221474.890,-1.465,-9.277,-19.043,12.695,0.000
1760221474.894,-6.348,-3.906,-18.066,-2.930,0.000
1760221474.898,-12.695,-3.906,-16.113,-12.695,0.000
1760221474.902,17.090,-5.859,-14.648,6.348,0.000
1760221474.906,43.457,-8.789,-19.043,0.977,0.000
1760221474.910,36.133,-0.488,-17.578,3.906,0.000
1760221474.914,5.371,-1.465,-10.742,6.836,0.000
1760221474.918,0.000,0.488,-4.395,-1.953,0.000
1760221474.922,0.000,2.441,-7.324,4.883,0.000
1760221474.926,0.000,-5.371,-11.719,5.859,0.000
1760221474.930,0.000,0.488,-18.555,-2.441,0.000
1760221474.933,0.000,-0.488,-19.531,0.977,0.000
1760221474.937,0.000,-14.160,-13.184,-7.812,0.000
1760221474.941,0.000,-11.719,-19.531,1.953,0.000
1760221474.945,0.000,-12.695,-23.926,18.555,0.000
1760221474.949,0.000,-16.113,-23.438,-5.859,0.000
1760221474.953,0.000,-0.977,-26.367,-24.414,0.000
1760221474.957,0.000,6.836,-25.391,-2.441,0.000
1760221474.961,0.000,-4.883,-23.438,3.906,0.000
1760221474.965,7.324,-0.977,-23.438,-14.648,0.000
1760221474.968,27.832,8.301,-29.297,-26.367,0.000
1760221474.972,24.902,5.859,-29.297,4.395,0.000
1760221474.976,6.348,9.277,-20.996,20.508,0.000
1760221474.980,18.555,7.324,-20.508,-2.930,0.000
1760221474.984,-3.418,-1.465,-30.273,-18.555,0.000
1760221474.988,19.043,1.953,-28.809,-3.906,0.000
1760221474.992,48.340,3.418,-20.996,27.344,0.000
1760221474.996,-10.742,0.000,-17.578,2.441,0.000
1760221475.000,-41.016,1.953,-19.043,-20.996,0.000
1760221475.004,-19.043,-1.953,-20.508,-7.324,0.000
1760221475.008,-6.836,-4.883,-14.160,12.207,0.000
1760221475.011,15.625,-6.348,-17.578,-3.906,0.000
1760221475.015,0.977,0.977,-23.926,-17.578,0.000
1760221475.019,-20.508,0.000,-28.320,6.348,0.000
1760221475.023,-16.602,-7.324,-28.320,17.578,0.000
1760221475.027,0.488,-2.441,-17.090,4.395,0.000
1760221475.031,-4.395,1.465,-13.184,-2.930,0.000
1760221475.035,-9.766,-4.883,-16.113,7.812,0.000
1760221475.039,-21.973,-10.742,-9.766,23.926,0.000
1760221475.043,-2.441,-3.906,-7.324,10.254,0.000
1760221475.047,13.184,0.000,-8.301,4.395,0.000
1760221475.050,-15.625,-4.883,-12.207,-3.906,0.000
1760221475.054,-22.949,-5.859,-18.066,1.953,0.000
1760221475.058,-0.488,-1.953,-20.020,18.555,0.000
1760221475.062,7.324,-3.418,-21.484,8.789,0.000
1760221475.066,-13.672,-5.371,-21.484,-1.953,0.000
1760221475.070,-21.484,-5.371,-20.020,-1.465,0.000
1760221475.074,6.836,-3.418,-14.648,10.742,0.000
1760221475.078,29.297,2.930,-11.719,9.766,0.000
1760221475.082,34.668,-7.324,-11.719,22.949,0.000
1760221475.086,-3.906,-18.555,-15.625,3.418,0.000
1760221475.090,-15.625,-11.719,-9.766,5.371,0.000
1760221475.093,12.207,-6.836,-4.883,26.367,0.000
1760221475.097,-5.371,-7.324,-9.277,2.441,0.000
1760221475.101,-25.879,-7.324,-14.160,-3.906,0.000
1760221475.105,-11.230,2.930,-14.160,2.441,0.000
1760221475.109,5.371,2.441,-17.578,2.930,0.000
1760221475.113,12.207,-8.789,-20.996,-7.812,0.000
1760221475.117,13.672,-12.695,-18.066,-18.555,0.000
1760221475.121,9.766,-11.719,-18.066,-7.812,0.000
1760221475.125,40.039,-10.254,-16.602,22.461,0.000
1760221475.129,28.809,-3.418,-15.625,7.812,0.000
1760221475.132,-37.598,0.488,-20.508,-25.879,0.000
1760221475.136,-54.199,-3.418,-20.996,-19.043,0.000
1760221475.140,-0.488,-2.441,-17.090,3.906,0.000
1760221475.144,15.625,-2.930,-14.648,-9.766,0.000
1760221475.148,-11.230,0.000,-15.137,-30.762,0.000
1760221475.152,-4.395,-4.395,-25.879,-23.438,0.000
1760221475.156,7.324,-6.836,-24.414,-1.465,0.000
1760221475.160,-1.953,-0.488,-15.625,-5.371,0.000
1760221475.164,19.531,-0.488,-15.625,-25.391,0.000
1760221475.168,39.062,-4.883,-11.719,-14.648,0.000
1760221475.172,1.953,-9.766,0.000,4.883,0.000
1760221475.175,-33.691,-10.254,2.930,-8.789,0.000
1760221475.179,-30.273,-10.254,3.418,-35.645,0.000
1760221475.183,-24.414,-20.996,6.348,-23.926,0.000
1760221475.187,-21.484,-34.668,3.906,-1.465,0.000
1760221475.191,-21.973,-28.809,4.395,9.277,0.000
1760221475.195,-24.414,-20.508,3.418,-15.137,0.000
1760221475.199,0.000,-24.414,0.977,-42.480,0.000
1760221475.203,0.000,-20.508,1.953,-30.762,0.000
1760221475.207,0.000,-17.090,-0.488,-17.090,0.000
1760221475.211,0.000,-24.414,-7.324,-20.020,0.000
1760221475.215,0.000,-31.250,-6.348,-27.344,0.000
1760221475.218,0.000,-25.879,-3.906,1.465,0.000
1760221475.222,0.000,-16.602,-8.301,9.277,0.000
1760221475.226,0.000,-19.531,-10.742,-17.578,0.000
1760221475.230,0.000,-27.344,-11.719,-16.602,0.000
1760221475.234,0.000,-22.461,-7.324,-10.254,0.000
1760221475.238,0.000,-18.066,-6.348,-4.395,0.000
1760221475.242,0.000,-20.996,-5.859,14.160,0.000
1760221475.246,-30.762,-23.926,-5.371,8.789,0.000
1760221475.250,-39.062,-25.879,-11.719,-7.812,0.000
1760221475.254,-21.973,-15.625,-11.230,-7.812,0.000
1760221475.258,3.906,-15.625,-12.695,13.184,0.000
1760221475.261,27.832,-25.391,-15.137,14.648,0.000
1760221475.265,46.875,-20.508,-11.230,4.395,0.000
1760221475.269,2.930,-19.531,-14.160,-9.766,0.000
1760221475.273,-48.828,-23.926,-16.113,-1.465,0.000
1760221475.277,-31.250,-20.508,-13.184,13.184,0.000
1760221475.281,-19.043,-12.695,-8.789,-11.719,0.000
1760221475.285,-17.090,-7.324,-9.277,-20.508,0.000
1760221475.289,-6.836,-10.742,-9.766,4.395,0.000
1760221475.293,4.395,-7.324,-8.789,8.301,0.000
1760221475.297,10.742,0.488,-8.301,-4.395,0.000
1760221475.300,1.953,-7.324,-0.488,-4.395,0.000
1760221475.304,-5.371,-4.883,-4.883,-11.719,0.000
1760221475.308,16.602,-0.488,-10.742,5.371,0.000
1760221475.312,6.348,-9.277,1.465,8.301,0.000
1760221475.316,-21.973,-8.789,9.766,-16.113,0.000
1760221475.320,-16.602,-8.789,14.648,-28.320,0.000
1760221475.324,-30.273,-19.531,19.043,-20.996,0.000
1760221475.328,-78.613,-18.066,25.879,-55.664,0.000
1760221475.332,-94.727,-17.090,30.762,-75.684,0.000
1760221475.336,-112.305,-17.578,28.809,-76.172,0.000
1760221475.340,0.000,-14.160,34.180,-83.984,0.000
1760221475.343,0.000,-14.648,39.551,-83.984,0.000
1760221475.347,0.000,-10.742,39.551,-100.586,0.000
1760221475.351,0.000,-5.859,34.668,-96.191,0.000
1760221475.355,0.000,-6.836,31.738,-67.383,0.000
1760221475.359,0.000,-11.230,26.855,-54.199,0.000
1760221475.363,0.000,-17.090,23.926,-51.758,0.000
1760221475.367,0.000,-19.043,25.391,-52.734,0.000
1760221475.371,0.000,-14.648,20.996,-46.875,0.000
1760221475.375,0.000,-11.230,16.113,-33.691,0.000
1760221475.379,0.000,-4.395,16.113,-35.645,0.000
1760221475.382,0.000,-0.977,8.789,-29.785,0.000
1760221475.386,-31.738,-9.766,5.859,-26.855,0.000
1760221475.390,-26.367,-7.324,11.719,-13.672,0.000
1760221475.394,-21.484,2.441,12.207,-1.465,0.000
1760221475.398,-47.852,0.488,10.742,-6.348,0.000
1760221475.402,-40.039,-4.395,8.789,-28.320,0.000
1760221475.406,-21.484,-4.395,5.371,-24.414,0.000
1760221475.410,-21.973,-10.742,6.348,-2.930,0.000
1760221475.414,-26.855,-4.883,3.906,-12.695,0.000
1760221475.418,-40.527,4.883,1.465,-26.367,0.000
1760221475.422,-29.297,4.395,0.977,-9.277,0.000
1760221475.425,4.395,7.812,3.906,10.254,0.000
1760221475.429,13.184,10.742,7.324,-4.883,0.000
1760221475.433,-22.461,11.230,6.836,-19.043,0.000
1760221475.437,-31.738,4.883,1.953,2.930,0.000
1760221475.441,-0.488,-3.906,-0.488,22.461,0.000
1760221475.445,-18.555,-7.812,-1.953,2.441,0.000
1760221475.449,-18.555,-6.836,-4.883,-10.254,0.000
1760221475.453,-0.488,-14.648,-9.766,9.277,0.000
1760221475.457,15.137,-16.113,-12.695,29.297,0.000
1760221475.461,20.996,-8.789,-6.348,-4.883,0.000
1760221475.464,-28.809,-7.324,-7.324,-27.832,0.000
1760221475.468,-45.410,-8.789,-9.277,-11.719,0.000
1760221475.472,-3.418,-5.859,-6.836,5.859,0.000
1760221475.476,21.484,-9.277,-10.254,2.441,0.000
1760221475.480,17.578,-16.113,-14.648,-8.789,0.000
1760221475.484,-16.113,-15.137,-14.648,-10.254,0.000
1760221475.488,-18.066,-14.160,-17.578,-6.836,0.000
1760221475.492,3.906,-15.625,-19.531,4.883,0.000
1760221475.496,-7.812,-14.160,-18.555,-1.465,0.000
1760221475.500,-7.812,-17.090,-22.949,-3.906,0.000
1760221475.504,11.719,-21.973,-13.672,8.301,0.000
1760221475.507,19.043,-14.160,-11.719,17.090,0.000
1760221475.511,-0.977,-0.977,-16.602,-1.465,0.000
1760221475.515,14.160,-8.789,-11.719,-4.395,0.000
1760221475.519,17.578,-11.719,-13.184,14.648,0.000
1760221475.523,0.977,-0.488,-17.578,21.484,0.000
1760221475.527,1.465,-0.977,-15.137,6.348,0.000
1760221475.531,-10.254,-2.441,-12.207,-3.418,0.000
1760221475.535,-7.324,-7.324,-12.207,-3.418,0.000
1760221475.539,13.184,-12.207,-12.695,21.973,0.000
1760221475.543,26.367,-11.230,-16.602,26.855,0.000
1760221475.547,4.395,-12.207,-19.531,-10.742,0.000
1760221475.550,14.160,-11.719,-13.672,-21.973,0.000
1760221475.554,10.742,-0.977,-10.254,-10.742,0.000
1760221475.558,-18.555,5.371,-11.719,5.371,0.000
1760221475.562,-22.461,-3.418,-15.625,3.418,0.000
1760221475.566,-18.555,-7.324,-16.113,-8.301,0.000
1760221475.570,1.465,2.930,-13.672,-7.324,0.000
1760221475.574,18.066,11.719,-11.719,20.508,0.000
1760221475.578,20.508,1.465,-13.184,8.789,0.000
1760221475.582,26.367,0.488,-10.742,-14.648,0.000
1760221475.586,20.508,7.324,-8.789,1.953,0.000
1760221475.589,32.227,4.395,-12.695,21.484,0.000
1760221475.593,27.344,7.324,-7.812,17.090,0.000
1760221475.597,-11.230,7.324,-1.465,-10.254,0.000
1760221475.601,-24.902,4.883,-5.371,-15.137,0.000
1760221475.605,14.648,-1.953,-15.137,20.020,0.000
1760221475.609,41.016,-8.789,-19.043,19.531,0.000
1760221475.613,-25.391,-8.789,-16.602,-14.648,0.000
1760221475.617,-41.504,-7.812,-13.672,-9.766,0.000
1760221475.621,-1.465,-0.977,-8.301,12.207,0.000
1760221475.625,13.184,5.859,-2.441,20.020,0.000
1760221475.629,12.695,7.324,-3.906,-3.418,0.000
1760221475.632,26.367,2.441,-11.230,-12.695,0.000
1760221475.636,17.090,-7.324,-20.996,-6.348,0.000
1760221475.640,1.953,-13.184,-21.973,8.789,0.000
1760221475.644,5.371,-5.859,-19.531,0.488,0.000
1760221475.648,-8.301,1.465,-16.602,-18.555,0.000
1760221475.652,-8.301,-1.953,-14.160,5.859,0.000
1760221475.656,21.973,-2.930,-8.301,23.926,0.000
1760221475.660,6.348,-1.465,-10.742,2.930,0.000
1760221475.664,-29.785,-10.254,-20.020,-14.648,0.000
1760221475.668,-17.578,-13.184,-20.508,-18.555,0.000
1760221475.672,-4.883,-1.465,-18.555,-3.418,0.000
1760221475.675,25.879,3.418,-19.043,-0.977,0.000
1760221475.679,18.555,-7.812,-24.902,-20.020,0.000
1760221475.683,-18.555,-6.836,-20.508,-18.555,0.000
1760221475.687,-7.324,3.418,-13.672,-9.277,0.000
1760221475.691,-0.488,4.883,-17.578,-1.465,0.000
1760221475.695,8.301,-5.859,-20.020,14.648,0.000
1760221475.699,27.344,-12.207,-28.320,-4.395,0.000
1760221475.703,-3.418,-3.906,-32.227,-37.109,0.000
1760221475.707,-18.555,-8.301,-23.438,-6.348,0.000
1760221475.711,-24.902,-16.602,-22.461,-7.324,0.000
1760221475.714,-48.828,-9.766,-23.926,-29.785,0.000
1760221475.718,-40.527,-2.930,-20.996,-34.180,0.000
1760221475.722,-13.672,-5.371,-22.461,-14.648,0.000
1760221475.726,-6.836,-12.207,-24.902,-16.113,0.000
1760221475.730,-13.184,-16.113,-22.949,-27.344,0.000
1760221475.734,0.977,-15.137,-24.902,-20.020,0.000
1760221475.738,0.488,-9.766,-26.367,-8.301,0.000
1760221475.742,9.277,-8.789,-23.438,11.719,0.000
1760221475.746,7.812,-6.348,-19.531,-2.441,0.000
1760221475.750,-20.020,-3.906,-15.625,-21.484,0.000
1760221475.754,-13.184,3.418,-16.113,-1.465,0.000
1760221475.757,30.273,1.953,-14.160,17.578,0.000
1760221475.761,1.465,-3.906,-11.719,4.395,0.000
1760221475.765,-34.668,-3.418,-16.602,-10.742,0.000
1760221475.769,-10.254,0.488,-13.672,-4.883,0.000
1760221475.773,42.480,-6.836,-11.719,24.414,0.000
1760221475.777,38.574,-9.766,-17.578,4.883,0.000
1760221475.781,-25.391,-1.465,-17.578,-29.297,0.000
1760221475.785,-37.109,-9.277,-19.531,-0.977,0.000
1760221475.789,-24.414,-12.207,-25.391,17.578,0.000
1760221475.793,-10.742,-9.277,-20.020,-2.441,0.000
1760221475.796,-11.719,-6.836,-14.160,-17.090,0.000
1760221475.800,-8.301,-3.906,-15.625,-20.508,0.000
1760221475.804,6.836,2.930,-11.719,-12.207,0.000
1760221475.808,18.066,11.230,-10.742,4.395,0.000
1760221475.812,35.156,2.441,-15.137,18.066,0.000
1760221475.816,31.250,-2.441,-9.766,18.555,0.000
1760221475.820,-18.555,5.371,3.418,9.766,0.000
1760221475.824,-40.039,-0.488,8.301,6.836,0.000
1760221475.828,-34.180,-13.184,6.348,-19.531,0.000
1760221475.832,-22.949,-24.414,4.395,-10.254,0.000
1760221475.836,-18.066,-25.879,5.371,-6.348,0.000
1760221475.839,4.883,-17.090,9.277,-5.371,0.000
1760221475.843,18.066,-15.625,12.207,11.230,0.000
1760221475.847,0.488,-11.230,11.719,1.465,0.000
1760221475.851,-0.488,-7.812,6.348,-14.648,0.000
1760221475.855,-4.395,-13.672,-0.488,15.625,0.000
1760221475.859,20.020,-10.742,5.371,34.180,0.000
1760221475.863,-10.742,-4.395,5.859,-16.113,0.000
1760221475.867,-37.598,-10.742,-1.465,-27.344,0.000
1760221475.871,-14.648,-7.324,4.395,4.395,0.000
1760221475.875,9.277,-10.742,6.836,34.180,0.000
1760221475.878,16.602,-13.184,3.906,20.996,0.000
1760221475.882,8.301,7.324,2.441,-11.719,0.000
1760221475.886,16.602,13.672,6.348,9.766,0.000
1760221475.890,15.625,2.441,3.906,37.109,0.000
1760221475.894,-0.488,-3.418,-6.348,21.484,0.000
1760221475.898,2.930,-5.371,-10.254,1.953,0.000
1760221475.902,16.602,-7.812,-16.113,-12.695,0.000
1760221475.906,16.113,-4.883,-13.672,0.488,0.000
1760221475.910,0.488,-4.395,-5.859,18.066,0.000
1760221475.914,-27.344,-7.812,-6.836,-0.488,0.000
1760221475.918,-28.809,-8.301,-10.742,-16.602,0.000
1760221475.922,2.930,-10.742,-8.789,7.324,0.000
1760221475.925,33.691,-5.371,-8.301,8.789,0.000
1760221475.929,8.301,4.395,-9.277,-14.648,0.000
1760221475.933,-12.207,0.000,-9.277,-14.648,0.000
1760221475.937,32.715,-11.719,-14.648,-5.859,0.000
1760221475.941,35.645,-16.113,-16.113,-1.465,0.000
1760221475.945,-13.184,-5.859,-12.695,-9.766,0.000
1760221475.949,-29.785,0.488,-4.883,-6.348,0.000
1760221475.953,-23.926,-9.766,-1.953,8.301,0.000
1760221475.957,-22.949,-14.160,-9.277,4.883,0.000
1760221475.961,-18.555,-12.695,-6.836,-7.324,0.000
1760221475.964,-10.254,-24.902,-2.930,-20.508,0.000
1760221475.968,-9.277,-16.602,1.953,-22.949,0.000
1760221475.972,-6.836,5.371,12.695,-10.742,0.000
1760221475.976,41.992,17.578,17.578,-0.488,0.000
1760221475.980,24.902,15.625,28.809,-20.020,0.000
1760221475.984,-56.641,15.625,21.484,-42.480,0.000
1760221475.988,-51.270,10.254,7.324,-31.738,0.000
1760221475.992,-25.879,16.602,34.180,-45.410,0.000
1760221475.996,-61.523,30.273,58.594,-73.730,0.000
1760221476.000,-114.258,21.973,52.734,-106.445,0.000
1760221476.004,-136.719,32.715,56.152,-137.695,0.000
1760221476.007,-139.648,49.805,70.801,-131.348,0.000
1760221476.011,-166.016,67.383,83.984,-154.297,0.000
1760221476.015,-183.594,69.336,104.004,-198.730,0.000
1760221476.019,-223.145,73.242,116.699,-212.891,0.000
1760221476.023,-229.980,85.938,108.887,-206.543,0.000
1760221476.027,-197.266,87.402,100.098,-199.219,0.000
1760221476.031,-210.938,94.727,102.539,-203.613,0.000
1760221476.035,-209.473,104.492,108.398,-208.008,0.000
1760221476.039,-164.551,108.398,106.445,-179.688,0.000
1760221476.043,-152.832,94.238,98.145,-163.086,0.000
1760221476.047,-148.926,80.566,99.609,-163.574,0.000
1760221476.050,-162.109,80.566,103.027,-137.207,0.000
1760221476.054,-127.930,83.008,96.191,-105.957,0.000
1760221476.058,-72.754,72.754,87.402,-86.426,0.000
1760221476.062,-85.938,53.223,73.730,-95.703,0.000
1760221476.066,-92.773,40.527,55.176,-103.516,0.000
1760221476.070,-87.891,26.367,47.363,-53.223,0.000
1760221476.074,-62.988,18.066,38.574,-10.254,0.000
1760221476.078,-39.551,17.090,33.203,-19.043,0.000
1760221476.082,-23.438,9.277,21.973,-11.719,0.000
1760221476.086,5.859,3.906,5.859,-1.465,0.000
1760221476.090,27.832,2.441,2.441,23.438,0.000
1760221476.093,42.969,0.000,-5.371,40.039,0.000
1760221476.097,64.453,-4.395,-17.090,38.086,0.000
1760221476.101,56.641,-10.742,-18.066,43.945,0.000
1760221476.105,50.781,-16.602,-22.949,61.035,0.000
1760221476.109,68.848,-26.367,-32.227,68.359,0.000
1760221476.113,42.969,-23.438,-37.109,52.246,0.000
1760221476.117,56.152,-22.949,-39.551,66.895,0.000
1760221476.121,89.355,-34.180,-40.527,84.473,0.000
1760221476.125,100.586,-30.762,-38.574,65.918,0.000
1760221476.129,94.238,-22.949,-42.480,61.035,0.000
1760221476.132,80.078,-19.531,-39.062,70.801,0.000
1760221476.136,83.984,-21.484,-34.180,72.754,0.000
1760221476.140,81.055,-20.508,-37.109,86.914,0.000
1760221476.144,86.914,-16.113,-33.203,92.773,0.000
1760221476.148,104.980,-19.043,-29.785,80.566,0.000
1760221476.152,96.191,-17.578,-32.227,82.031,0.000
1760221476.156,89.844,-9.766,-29.785,100.098,0.000
1760221476.160,102.539,-14.648,-35.156,101.562,0.000
1760221476.164,89.844,-15.625,-42.480,81.543,0.000
1760221476.168,86.426,-1.953,-37.109,68.848,0.000
1760221476.171,111.328,0.977,-35.645,86.426,0.000
1760221476.175,88.867,-4.395,-33.691,94.238,0.000
1760221476.179,76.172,0.000,-33.203,80.566,0.000
1760221476.183,81.055,2.441,-45.898,73.242,0.000
1760221476.187,83.008,-4.395,-40.527,77.148,0.000
1760221476.191,88.867,-6.836,-28.320,95.703,0.000
1760221476.195,87.402,-11.719,-30.273,80.566,0.000
1760221476.199,106.445,-13.184,-35.645,68.848,0.000
1760221476.203,96.191,-19.043,-35.156,59.570,0.000
1760221476.207,72.266,-27.344,-34.180,75.684,0.000
1760221476.211,61.035,-11.719,-35.156,78.125,0.000
1760221476.214,63.965,0.488,-32.227,52.246,0.000
1760221476.218,64.941,-13.672,-31.250,56.152,0.000
1760221476.222,62.012,-11.719,-37.109,79.102,0.000
1760221476.226,80.566,-4.883,-33.691,74.707,0.000
1760221476.230,90.332,-8.301,-30.762,41.504,0.000
1760221476.234,68.848,-14.648,-38.086,33.691,0.000
1760221476.238,26.367,-26.367,-35.645,42.480,0.000
1760221476.242,24.902,-31.738,-33.203,54.688,0.000
1760221476.246,35.645,-31.738,-36.133,47.363,0.000
1760221476.250,41.992,-31.250,-37.598,48.340,0.000
1760221476.253,44.922,-33.691,-37.598,58.594,0.000
1760221476.257,51.270,-28.809,-33.691,44.434,0.000
1760221476.261,81.543,-23.438,-27.832,39.062,0.000
1760221476.265,73.730,-21.973,-22.949,32.227,0.000
1760221476.269,5.371,-18.555,-26.367,22.949,0.000
1760221476.273,-1.465,-16.113,-22.461,41.016,0.000
1760221476.277,26.367,-19.043,-18.555,36.621,0.000
1760221476.281,16.113,-25.391,-24.414,17.578,0.000
1760221476.285,16.113,-24.902,-24.902,26.855,0.000
1760221476.289,17.578,-29.297,-21.973,40.039,0.000
1760221476.293,21.973,-28.809,-21.973,36.621,0.000
1760221476.296,42.969,-29.297,-20.508,24.902,0.000
1760221476.300,65.430,-28.809,-19.043,27.344,0.000
1760221476.304,20.996,-19.531,-24.414,34.668,0.000
1760221476.308,3.418,-15.625,-23.926,40.039,0.000
1760221476.312,30.273,-18.555,-20.020,43.945,0.000
1760221476.316,13.184,-19.531,-19.531,26.367,0.000
1760221476.320,9.766,-13.672,-16.602,12.695,0.000
1760221476.324,31.738,-11.719,-14.648,37.109,0.000
1760221476.328,34.180,-4.883,-17.578,27.832,0.000
1760221476.332,18.555,3.906,-20.020,6.836,0.000
1760221476.336,14.160,-1.465,-21.484,18.066,0.000
1760221476.339,27.344,-11.230,-23.438,26.855,0.000
1760221476.343,78.125,-13.184,-20.020,21.484,0.000
1760221476.347,47.852,-16.113,-19.531,9.277,0.000
1760221476.351,-21.484,-16.602,-17.578,7.812,0.000
1760221476.355,8.301,-19.043,-20.020,24.414,0.000
1760221476.359,13.184,-22.461,-29.297,19.043,0.000
1760221476.363,0.000,-15.625,-21.973,0.488,0.000
1760221476.367,3.906,-7.324,-14.648,5.859,0.000
1760221476.371,16.113,-9.277,-20.996,7.812,0.000
1760221476.375,24.414,-12.695,-20.508,15.625,0.000
1760221476.379,11.230,-10.742,-14.648,8.301,0.000
1760221476.382,44.922,-11.719,-20.020,-7.812,0.000
1760221476.386,35.645,-8.301,-26.855,3.418,0.000
1760221476.390,-4.883,-14.160,-20.508,19.531,0.000
1760221476.394,6.348,-14.648,-14.648,6.836,0.000
1760221476.398,2.441,-10.254,-18.555,-3.906,0.000
1760221476.402,-0.488,-22.461,-20.996,9.277,0.000
1760221476.406,14.160,-21.973,-23.926,14.648,0.000
1760221476.410,33.691,-9.766,-25.391,6.348,0.000
1760221476.414,36.133,-12.695,-26.367,-8.301,0.000
1760221476.418,0.000,-13.672,-29.785,-13.672,0.000
1760221476.421,0.000,-14.160,-28.809,3.418,0.000
1760221476.425,0.000,-18.555,-21.973,16.602,0.000
1760221476.429,0.000,-16.602,-21.973,9.766,0.000
1760221476.433,0.000,-12.695,-18.555,-6.836,0.000
1760221476.437,0.000,-12.695,-15.137,6.836,0.000
1760221476.441,0.000,-10.742,-16.602,30.762,0.000
1760221476.445,0.000,-7.324,-15.625,20.020,0.000
1760221476.449,0.000,-12.207,-19.043,11.719,0.000
1760221476.453,0.000,-3.418,-16.113,6.348,0.000
1760221476.457,0.000,5.371,-10.742,20.508,0.000
1760221476.461,0.000,-3.906,-17.578,16.602,0.000
1760221476.464,0.488,-3.906,-22.461,-2.441,0.000
1760221476.468,-10.742,-8.301,-19.043,0.488,0.000
1760221476.472,14.648,-8.789,-17.090,21.484,0.000
1760221476.476,37.598,-5.859,-13.672,17.578,0.000
1760221476.480,7.324,-3.906,-14.160,-8.789,0.000
1760221476.484,-5.859,-3.418,-16.602,0.000,0.000
1760221476.488,0.977,-6.836,-17.090,12.207,0.000
1760221476.492,28.320,-10.742,-20.508,23.438,0.000
1760221476.496,21.484,-17.090,-25.391,9.766,0.000
1760221476.500,-20.996,-17.578,-26.855,-14.160,0.000
1760221476.503,-17.090,-25.879,-28.320,-10.742,0.000
1760221476.507,8.301,-25.879,-34.668,-1.465,0.000
1760221476.511,20.508,-14.160,-39.062,-20.020,0.000
1760221476.515,7.812,-19.043,-38.574,-27.344,0.000
1760221476.519,-8.789,-20.020,-33.691,-2.930,0.000
1760221476.523,-17.578,-19.043,-31.738,13.184,0.000
1760221476.527,-20.996,-19.043,-30.273,0.977,0.000
1760221476.531,-0.977,-9.766,-29.785,-7.812,0.000
1760221476.535,27.344,-9.766,-27.344,-4.395,0.000
1760221476.539,20.996,-19.531,-23.438,21.484,0.000
1760221476.543,-0.977,-13.672,-22.949,9.766,0.000
1760221476.546,-0.977,-11.719,-18.066,-19.043,0.000
1760221476.550,-2.930,-15.137,-22.949,-16.602,0.000
1760221476.554,0.488,-10.254,-29.785,-9.277,0.000
1760221476.558,21.973,-2.930,-23.926,4.883,0.000
1760221476.562,52.734,-2.441,-18.555,2.930,0.000
1760221476.566,11.230,-1.953,-20.020,-8.789,0.000
1760221476.570,-46.387,-3.906,-21.484,-9.766,0.000
1760221476.574,-15.625,-9.766,-20.996,9.766,0.000
1760221476.578,-15.625,-7.324,-18.066,12.695,0.000
1760221476.582,-14.160,-15.625,-16.113,6.836,0.000
1760221476.586,7.324,-18.066,-16.113,-3.906,0.000
1760221476.589,6.348,-6.836,-16.602,0.000,0.000
1760221476.593,13.184,-4.883,-22.949,6.348,0.000
1760221476.597,34.180,-1.953,-25.879,1.953,0.000
1760221476.601,-1.953,-3.906,-30.762,-15.625,0.000
1760221476.605,-19.043,-0.977,-33.691,-23.926,0.000
1760221476.609,17.578,5.859,-27.344,-1.953,0.000
1760221476.613,-5.371,-3.418,-21.484,13.672,0.000
1760221476.617,0.000,-8.789,-19.043,16.113,0.000
1760221476.621,18.066,1.953,-21.484,-1.953,0.000
1760221476.625,24.414,3.906,-26.367,12.695,0.000
1760221476.628,29.297,-4.883,-29.785,1.953,0.000
1760221476.632,25.391,3.906,-28.809,-24.414,0.000
1760221476.636,5.859,7.812,-19.531,-9.766,0.000
1760221476.640,6.836,-4.395,-18.555,17.578,0.000
1760221476.644,17.090,-12.695,-24.414,10.742,0.000
1760221476.648,-8.789,-6.836,-23.438,-18.066,0.000
1760221476.652,-19.043,-1.953,-23.438,2.930,0.000
1760221476.656,9.277,-2.930,-20.020,22.949,0.000
1760221476.660,3.906,-1.953,-30.762,-12.695,0.000
1760221476.664,-7.812,4.883,-38.086,-41.992,0.000
1760221476.668,17.090,8.301,-27.344,-21.973,0.000
1760221476.671,12.207,2.441,-27.832,3.418,0.000
1760221476.675,-2.441,-0.977,-29.297,-2.441,0.000
1760221476.679,-19.043,-1.465,-21.973,-25.391,0.000
1760221476.683,-29.297,-6.348,-20.020,-24.414,0.000
1760221476.687,3.418,-6.348,-24.902,-1.465,0.000
1760221476.691,39.551,-2.930,-23.438,-1.953,0.000
1760221476.695,15.137,-2.930,-19.043,-17.090,0.000
1760221476.699,-20.996,1.953,-15.137,-5.371,0.000
1760221476.703,-20.508,3.906,-13.184,-1.953,0.000
1760221476.707,16.602,6.836,-14.648,3.418,0.000
1760221476.711,44.434,10.254,-16.113,4.395,0.000
1760221476.714,15.137,1.953,-17.578,0.488,0.000
1760221476.718,12.695,-3.906,-20.020,1.953,0.000
1760221476.722,17.578,1.465,-18.066,-1.465,0.000
1760221476.726,-11.719,2.441,-11.230,1.465,0.000
1760221476.730,-15.625,-4.395,-8.789,1.465,0.000
1760221476.734,-3.906,-6.348,-10.254,2.441,0.000
1760221476.738,-0.977,0.977,-8.789,2.441,0.000
1760221476.742,24.902,-3.906,-5.371,9.766,0.000
1760221476.746,0.000,-16.602,-7.324,-4.883,0.000
1760221476.750,0.000,-15.137,-6.836,-30.273,0.000
1760221476.754,0.000,-11.230,-7.812,-20.996,0.000
1760221476.757,0.000,-16.113,-13.672,-2.441,0.000
1760221476.761,0.000,-15.625,-13.184,-5.371,0.000
1760221476.765,0.000,-13.184,-13.184,-13.672,0.000
1760221476.769,0.000,-9.277,-18.555,-19.531,0.000
1760221476.773,0.000,-8.301,-16.113,7.812,0.000
1760221476.777,0.000,-5.371,-16.602,14.648,0.000
1760221476.781,0.000,-2.441,-21.484,-33.203,0.000
1760221476.785,0.000,-6.348,-11.230,-35.645,0.000
1760221476.789,0.000,-4.395,-16.113,-7.812,0.000
1760221476.792,11.719,2.930,-20.508,-2.441,0.000
1760221476.796,-30.762,2.441,-17.090,-4.395,0.000
1760221476.800,-21.484,-5.371,-21.973,-9.766,0.000
1760221476.804,-4.883,-14.648,-27.832,-7.324,0.000
1760221476.808,-13.184,-16.113,-21.484,0.000,0.000
1760221476.812,-22.949,-15.625,-11.719,-21.484,0.000
1760221476.816,-12.695,-18.555,-11.230,-18.066,0.000
1760221476.820,29.297,-15.137,-19.043,-2.930,0.000
1760221476.824,41.016,-17.578,-21.973,-1.953,0.000
1760221476.828,-43.457,-11.719,-12.695,-25.391,0.000
1760221476.831,-64.941,-1.465,-3.418,-17.090,0.000
1760221476.835,-25.879,-3.418,-2.930,0.977,0.000
1760221476.839,9.766,-11.230,-5.371,11.719,0.000
1760221476.843,22.949,-4.883,-6.836,6.348,0.000
1760221476.847,20.020,6.836,-4.395,-12.695,0.000
1760221476.851,14.648,0.000,-8.301,-12.207,0.000
1760221476.855,-6.836,-3.906,-9.766,1.465,0.000
1760221476.859,-12.207,-10.254,-3.418,4.395,0.000
1760221476.863,-6.836,-8.789,-5.371,-9.766,0.000
1760221476.867,17.578,-4.883,-4.883,9.766,0.000
1760221476.871,41.016,-11.230,-2.441,27.344,0.000
1760221476.874,32.715,-5.859,-8.789,13.672,0.000
1760221476.878,5.859,-4.883,-8.789,2.441,0.000
1760221476.882,20.996,-2.441,-1.465,0.977,0.000
1760221476.886,32.227,-0.977,-3.418,2.930,0.000
1760221476.890,12.695,-1.953,-4.395,4.883,0.000
1760221476.894,0.977,-5.371,-10.254,-4.395,0.000
1760221476.898,-13.672,-16.113,-20.020,-14.160,0.000
1760221476.902,-14.160,-15.625,-18.066,-10.742,0.000
1760221476.906,4.395,-8.301,-11.230,1.953,0.000
1760221476.910,25.391,-10.742,-5.859,9.766,0.000
1760221476.914,20.996,-12.207,-9.277,2.441,0.000
1760221476.917,10.742,2.930,-15.137,-24.902,0.000
1760221476.921,11.719,8.301,-11.230,9.766,0.000
1760221476.925,8.301,-0.977,-6.836,26.367,0.000
1760221476.929,-7.324,-2.930,-10.742,-14.648,0.000
1760221476.933,-10.742,8.301,-15.625,-21.973,0.000
1760221476.937,21.973,5.859,-15.625,-2.930,0.000
1760221476.941,23.438,-5.859,-14.648,18.555,0.000
1760221476.945,-2.441,-0.977,-15.137,4.883,0.000
1760221476.949,-3.906,-1.953,-8.301,-6.348,0.000
1760221476.953,-10.742,-12.207,-4.883,-1.465,0.000
1760221476.956,7.324,-20.020,-6.836,14.648,0.000
1760221476.960,-3.906,-17.090,-10.254,2.441,0.000
1760221476.964,1.465,-8.301,-12.695,-7.324,0.000
1760221476.968,27.344,-8.301,-10.254,3.418,0.000
1760221476.972,22.949,-5.371,-9.277,6.836,0.000
1760221476.976,8.789,-2.441,-5.371,11.719,0.000
1760221476.980,-10.742,-8.301,-7.324,-5.371,0.000
1760221476.984,-7.812,-17.578,-13.184,-3.906,0.000
1760221476.988,-6.348,-22.461,-11.719,7.812,0.000
1760221476.992,16.113,-20.020,-10.742,11.719,0.000
1760221476.996,20.020,-14.648,-15.625,-2.930,0.000
1760221476.999,-9.766,-21.484,-17.578,-11.719,0.000
1760221477.003,-12.207,-20.020,-16.113,6.836,0.000
1760221477.007,13.672,-4.395,-11.230,4.395,0.000
1760221477.011,21.484,-3.418,-5.859,-13.184,0.000
1760221477.015,7.324,-7.812,-6.348,-10.254,0.000
1760221477.019,-5.371,-12.695,-8.301,-8.301,0.000
1760221477.023,-22.461,-18.066,-5.859,-7.324,0.000
1760221477.027,0.000,-16.602,-10.742,-2.441,0.000
1760221477.031,0.000,-12.695,-13.184,-15.625,0.000
1760221477.035,0.000,-4.395,-8.301,-27.832,0.000
1760221477.038,0.000,-1.465,-7.812,-1.465,0.000
1760221477.042,0.000,-9.277,-4.395,8.301,0.000
1760221477.046,0.000,-11.719,-4.395,-16.602,0.000
1760221477.050,0.000,-11.230,-7.324,-20.020,0.000
1760221477.054,0.000,-7.324,-6.836,0.977,0.000
1760221477.058,0.000,-6.348,-10.254,20.508,0.000
1760221477.062,0.000,-8.789,-10.254,1.465,0.000
1760221477.066,0.000,-7.812,-8.301,-26.367,0.000
1760221477.070,0.000,-9.277,-10.254,-19.043,0.000
1760221477.074,-10.254,-5.371,-9.277,12.695,0.000
1760221477.078,2.930,-3.906,-6.836,0.000,0.000
1760221477.081,-2.930,-5.859,-5.859,-12.695,0.000
1760221477.085,11.719,-8.301,-11.719,-5.371,0.000
1760221477.089,34.180,-9.277,-15.137,6.348,0.000
1760221477.093,20.508,-5.371,-8.789,-3.906,0.000
1760221477.097,-15.137,-9.766,-10.254,-13.184,0.000
1760221477.101,-9.766,-8.301,-19.043,-20.020,0.000
1760221477.105,30.762,-10.254,-17.578,-7.324,0.000
1760221477.109,20.996,-21.973,-7.324,31.738,0.000
1760221477.113,-15.625,-14.648,-5.371,-3.418,0.000
1760221477.117,-32.715,-3.418,-11.719,-39.062,0.000
1760221477.121,-17.578,6.348,-14.160,-16.602,0.000
1760221477.124,-3.906,6.836,-16.113,-0.977,0.000
1760221477.128,-3.906,1.465,-16.602,-32.227,0.000
1760221477.132,-15.137,1.465,-15.625,-44.434,0.000
1760221477.136,-16.602,-4.883,-18.066,-39.062,0.000
1760221477.140,-11.719,-0.488,-18.555,-24.902,0.000
1760221477.144,-28.320,-2.930,-20.508,-32.227,0.000
1760221477.148,-32.715,-4.395,-14.648,-53.711,0.000
1760221477.152,-5.859,-5.859,-16.113,-34.668,0.000
1760221477.156,-14.648,-13.672,-18.555,-15.137,0.000
1760221477.160,-26.855,-9.277,-19.531,-20.020,0.000
1760221477.163,-8.789,-7.812,-23.438,-25.391,0.000
1760221477.167,-12.695,-3.906,-25.879,-12.695,0.000
1760221477.171,-17.578,3.418,-17.578,3.906,0.000
1760221477.175,3.906,7.812,-9.766,-8.301,0.000
1760221477.179,21.973,8.789,-10.742,-7.324,0.000
1760221477.183,-10.254,3.418,-10.742,0.488,0.000
1760221477.187,13.184,0.488,-5.859,11.230,0.000
1760221477.191,43.945,1.465,-5.371,27.832,0.000
1760221477.195,-2.930,-1.465,-14.648,13.672,0.000
1760221477.199,-17.578,-0.488,-19.043,-4.395,0.000
1760221477.203,-8.301,-4.395,-16.602,-11.719,0.000
1760221477.206,-3.418,-12.695,-16.602,5.371,0.000
1760221477.210,2.441,-9.766,-17.578,-3.906,0.000
1760221477.214,1.465,-4.883,-13.184,-15.625,0.000
1760221477.218,-8.301,2.930,-11.230,-6.348,0.000
1760221477.222,35.156,0.977,-10.254,17.578,0.000
1760221477.226,27.832,-7.324,-12.207,20.020,0.000
1760221477.230,12.695,-3.418,-12.695,17.578,0.000
1760221477.234,14.160,1.465,-10.254,18.555,0.000
1760221477.238,11.719,2.930,-5.859,14.160,0.000
1760221477.242,17.578,-4.395,-5.859,30.762,0.000
1760221477.245,-18.066,-7.324,-10.254,13.184,0.000
1760221477.249,-19.531,-4.883,-3.906,-3.418,0.000
1760221477.253,28.809,-3.418,-0.488,13.184,0.000
1760221477.257,68.359,6.348,-3.906,22.461,0.000
1760221477.261,-1.465,3.418,-5.371,7.812,0.000
1760221477.265,-39.551,0.488,-2.930,-1.953,0.000
1760221477.269,-10.254,7.324,-7.812,13.184,0.000
1760221477.273,19.043,8.789,-10.742,30.273,0.000
1760221477.277,4.395,8.789,-9.766,15.137,0.000
1760221477.281,-19.531,5.371,-7.324,-2.930,0.000
1760221477.285,5.859,-1.953,-10.742,13.672,0.000
1760221477.288,41.016,-3.418,-14.648,31.738,0.000
1760221477.292,52.734,-0.977,-8.789,5.859,0.000
1760221477.296,9.277,-1.953,-8.301,-5.859,0.000
1760221477.300,-25.391,0.000,-10.254,-8.301,0.000
1760221477.304,-23.438,-0.488,-10.254,7.324,0.000
1760221477.308,1.953,-4.395,-9.277,27.832,0.000
1760221477.312,8.301,0.488,-13.184,6.348,0.000
1760221477.316,7.324,4.395,-15.625,-11.719,0.000
1760221477.320,21.484,8.301,-14.648,0.977,0.000
1760221477.324,10.742,3.906,-17.090,38.574,0.000
1760221477.328,7.812,0.488,-17.578,15.625,0.000
1760221477.331,28.809,0.977,-17.090,-1.465,0.000
1760221477.335,12.695,-1.465,-15.625,-4.883,0.000
1760221477.339,7.324,3.418,-8.789,-11.230,0.000
1760221477.343,15.625,-2.930,-14.160,-4.395,0.000
1760221477.347,25.879,-4.395,-18.066,-16.113,0.000
1760221477.351,-10.254,-1.465,-15.625,-12.695,0.000
1760221477.355,-29.297,-3.906,-20.996,6.348,0.000
1760221477.359,9.277,-2.930,-23.438,18.555,0.000
1760221477.363,4.395,-0.977,-13.672,20.020,0.000
1760221477.367,-25.391,-8.789,-10.742,5.859,0.000
1760221477.370,12.695,-13.184,-12.695,3.418,0.000
1760221477.374,41.016,-8.301,-10.742,20.020,0.000
1760221477.378,-6.836,-8.789,-11.719,2.441,0.000
1760221477.382,-18.555,-8.789,-15.137,-12.695,0.000
