timestamps,TP9,AF7,AF8,TP10,Right AUX
1760229485.894,-32.715,-75.684,-7.324,2.930,0.000
1760229485.898,-33.691,-81.543,-12.695,3.906,0.000
1760229485.902,-25.391,-74.707,-13.672,3.418,0.000
1760229485.906,-27.832,-71.289,-15.137,-2.441,0.000
1760229485.910,-27.344,-64.941,-17.578,-5.859,0.000
1760229485.914,-22.949,-61.035,-15.137,-0.488,0.000
1760229485.918,-14.160,-56.641,-14.160,2.441,0.000
1760229485.922,-12.207,-57.129,-18.555,0.977,0.000
1760229485.925,-28.320,-61.035,-18.555,-4.883,0.000
1760229485.929,-38.086,-55.664,-14.648,-16.602,0.000
1760229485.933,-32.715,-60.059,-14.648,-18.066,0.000
1760229485.937,-28.320,-60.059,-15.625,-18.555,0.000
1760229485.941,-34.668,-53.223,-16.602,-23.926,0.000
1760229485.945,-31.738,-50.781,-19.531,-20.508,0.000
1760229485.949,-28.809,-48.340,-22.461,-19.531,0.000
1760229485.953,-27.344,-47.852,-20.996,-19.531,0.000
1760229485.957,-25.879,-49.316,-19.531,-17.578,0.000
1760229485.961,-26.855,-47.363,-27.344,-28.320,0.000
1760229485.965,-30.273,-45.898,-31.250,-28.320,0.000
1760229485.968,-23.926,-43.457,-25.391,-9.766,0.000
1760229485.972,-19.043,-42.969,-25.879,-17.578,0.000
1760229485.976,-30.273,-43.945,-24.414,-25.879,0.000
1760229485.980,-27.344,-40.527,-18.066,-20.508,0.000
1760229485.984,-22.461,-44.434,-15.625,-22.461,0.000
1760229485.988,-27.832,-45.898,-12.695,-25.391,0.000
1760229485.992,-29.297,-43.457,-19.043,-24.414,0.000
1760229485.996,-33.203,-40.527,-21.973,-29.785,0.000
1760229486.000,-29.297,-41.016,-18.555,-32.227,0.000
1760229486.004,-20.996,-40.039,-22.949,-28.320,0.000
1760229486.007,-24.414,-34.180,-28.809,-33.691,0.000
1760229486.011,-31.738,-32.227,-31.250,-36.133,0.000
1760229486.015,-37.109,-39.551,-28.320,-38.574,0.000
1760229486.019,-33.691,-44.434,-22.461,-29.785,0.000
1760229486.023,-28.809,-41.016,-18.555,-20.996,0.000
1760229486.027,-34.180,-38.574,-17.578,-24.902,0.000
1760229486.031,-33.203,-41.992,-21.973,-23.926,0.000
1760229486.035,-18.066,-41.016,-27.344,-9.277,0.000
1760229486.039,-17.578,-40.039,-24.902,-0.488,0.000
1760229486.043,-32.715,-36.621,-22.949,-19.043,0.000
1760229486.047,-31.250,-41.016,-25.391,-26.367,0.000
1760229486.050,-16.113,-45.410,-29.785,-14.160,0.000
1760229486.054,-19.043,-42.480,-41.504,-20.508,0.000
1760229486.058,-24.902,-46.387,-44.434,-26.367,0.000
1760229486.062,-24.902,-49.316,-34.180,-24.902,0.000
1760229486.066,-22.461,-50.781,-24.414,-10.742,0.000
1760229486.070,-20.996,-48.828,-20.020,-5.371,0.000
1760229486.074,-22.949,-43.945,-26.855,-13.672,0.000
1760229486.078,-19.531,-41.504,-29.297,-12.207,0.000
1760229486.082,-24.902,-41.016,-29.297,-15.625,0.000
1760229486.086,-19.531,-40.039,-29.785,-15.137,0.000
1760229486.089,-11.719,-36.621,-22.949,-5.859,0.000
1760229486.093,-16.113,-38.086,-20.996,-12.207,0.000
1760229486.097,-19.531,-38.574,-28.320,-20.996,0.000
1760229486.101,-15.137,-33.203,-24.902,-14.160,0.000
1760229486.105,-15.625,-37.109,-21.484,-15.625,0.000
1760229486.109,-23.926,-41.504,-26.855,-26.855,0.000
1760229486.113,-27.832,-40.039,-24.902,-29.785,0.000
1760229486.117,-26.855,-43.457,-31.250,-23.926,0.000
1760229486.121,-27.344,-44.434,-34.668,-19.531,0.000
1760229486.125,-29.297,-47.363,-29.297,-16.113,0.000
1760229486.129,-26.367,-46.387,-28.320,-21.973,0.000
1760229486.132,-20.020,-37.598,-32.227,-22.949,0.000
1760229486.136,-16.602,-38.086,-32.227,-11.719,0.000
1760229486.140,-18.066,-41.504,-26.367,-14.160,0.000
1760229486.144,-24.414,-40.527,-22.949,-20.996,0.000
1760229486.148,-25.879,-42.480,-23.926,-21.484,0.000
1760229486.152,-13.672,-42.969,-23.438,-13.672,0.000
1760229486.156,-18.555,-41.016,-23.438,-18.066,0.000
1760229486.160,-21.484,-36.621,-24.902,-17.090,0.000
1760229486.164,-20.020,-40.527,-24.414,-8.789,0.000
1760229486.168,-20.020,-46.387,-28.809,-16.602,0.000
1760229486.171,-12.207,-37.598,-29.785,-20.020,0.000
1760229486.175,-10.742,-28.320,-29.297,-19.043,0.000
1760229486.179,-12.695,-29.297,-30.762,-19.531,0.000
1760229486.183,-16.602,-36.621,-27.344,-14.648,0.000
1760229486.187,-17.578,-31.250,-30.273,-9.766,0.000
1760229486.191,-11.719,-23.926,-32.715,-13.672,0.000
1760229486.195,-13.672,-29.297,-29.297,-16.113,0.000
1760229486.199,-17.090,-26.367,-30.273,-17.578,0.000
1760229486.203,-10.254,-21.973,-28.320,-12.695,0.000
1760229486.207,-13.672,-29.785,-29.785,-9.766,0.000
1760229486.211,-28.809,-36.621,-32.715,-25.391,0.000
1760229486.214,-31.250,-35.645,-32.227,-38.574,0.000
1760229486.218,-21.973,-38.574,-26.855,-27.832,0.000
1760229486.222,-14.648,-33.691,-23.926,-16.113,0.000
1760229486.226,-15.137,-23.926,-26.367,-16.602,0.000
1760229486.230,-18.555,-28.809,-28.320,-10.742,0.000
1760229486.234,-15.137,-31.250,-25.391,-6.348,0.000
1760229486.238,-12.695,-27.344,-21.484,-12.695,0.000
1760229486.242,-9.766,-26.855,-20.508,-18.555,0.000
1760229486.246,-10.742,-24.414,-20.020,-19.531,0.000
1760229486.250,-17.090,-21.484,-20.508,-9.766,0.000
1760229486.254,-15.625,-24.902,-21.973,-1.465,0.000
1760229486.257,-16.113,-24.902,-17.578,-15.137,0.000
1760229486.261,-20.996,-25.391,-15.137,-26.367,0.000
1760229486.265,-19.043,-23.926,-15.137,-20.996,0.000
1760229486.269,-18.066,-23.438,-14.160,-15.625,0.000
1760229486.273,-24.902,-26.855,-15.137,-28.320,0.000
1760229486.277,-30.762,-34.668,-18.066,-32.715,0.000
1760229486.281,-35.645,-41.016,-20.508,-34.180,0.000
1760229486.285,-32.227,-38.086,-22.949,-29.785,0.000
1760229486.289,-29.785,-36.621,-23.926,-22.949,0.000
1760229486.293,-32.715,-37.598,-28.809,-36.133,0.000
1760229486.296,-33.691,-35.645,-32.715,-41.504,0.000
1760229486.300,-26.855,-35.156,-28.809,-36.133,0.000
1760229486.304,-27.832,-38.086,-25.879,-29.785,0.000
1760229486.308,-40.039,-35.156,-25.391,-35.645,0.000
1760229486.312,-36.621,-27.832,-26.367,-41.992,0.000
1760229486.316,-33.203,-29.297,-28.809,-36.621,0.000
1760229486.320,-32.227,-30.762,-23.438,-28.320,0.000
1760229486.324,-36.621,-23.438,-18.555,-25.879,0.000
1760229486.328,-45.898,-24.414,-20.020,-24.902,0.000
1760229486.332,-46.875,-29.785,-21.973,-30.273,0.000
1760229486.336,-39.551,-29.297,-26.855,-36.621,0.000
1760229486.339,-41.016,-32.227,-26.855,-37.109,0.000
1760229486.343,-46.387,-31.738,-23.438,-34.668,0.000
1760229486.347,-52.734,-33.691,-26.855,-41.504,0.000
1760229486.351,-51.758,-36.621,-31.250,-41.504,0.000
1760229486.355,-48.340,-34.180,-32.715,-42.969,0.000
1760229486.359,-48.340,-30.273,-33.691,-55.176,0.000
1760229486.363,0.000,-31.738,-29.785,-49.316,0.000
1760229486.367,0.000,-36.133,-31.738,-41.992,0.000
1760229486.371,0.000,-32.715,-35.645,-34.180,0.000
1760229486.375,0.000,-28.809,-32.715,-31.250,0.000
1760229486.378,0.000,-31.738,-33.203,-36.621,0.000
1760229486.382,0.000,-31.250,-34.180,-33.691,0.000
1760229486.386,0.000,-28.809,-28.809,-23.926,0.000
1760229486.390,0.000,-30.273,-30.273,-30.762,0.000
1760229486.394,0.000,-30.273,-36.621,-36.133,0.000
1760229486.398,0.000,-27.832,-31.738,-26.855,0.000
1760229486.402,0.000,-24.414,-26.367,-29.297,0.000
1760229486.406,0.000,-23.438,-29.785,-35.156,0.000
1760229486.410,-44.922,-29.297,-35.645,-47.363,0.000
1760229486.414,-45.410,-29.785,-30.762,-45.410,0.000
1760229486.418,-32.227,-20.996,-27.344,-33.203,0.000
1760229486.421,-28.320,-21.973,-29.297,-38.086,0.000
1760229486.425,-30.762,-23.926,-29.297,-43.457,0.000
1760229486.429,-39.062,-30.762,-31.250,-42.480,0.000
1760229486.433,-41.016,-34.180,-31.738,-37.598,0.000
1760229486.437,-25.879,-23.438,-30.273,-32.715,0.000
1760229486.441,-19.531,-16.113,-32.715,-36.133,0.000
1760229486.445,-26.367,-14.648,-30.273,-33.203,0.000
1760229486.449,-28.320,-18.066,-24.414,-22.461,0.000
1760229486.453,-22.949,-19.043,-21.484,-13.184,0.000
1760229486.457,-23.926,-24.414,-19.043,-11.230,0.000
1760229486.461,-24.902,-26.367,-21.973,-23.926,0.000
1760229486.464,-27.832,-23.926,-23.438,-36.133,0.000
1760229486.468,-30.273,-21.484,-22.461,-37.109,0.000
1760229486.472,-31.250,-21.973,-21.484,-34.180,0.000
1760229486.476,-39.062,-29.785,-21.484,-28.809,0.000
1760229486.480,-42.969,-33.203,-18.066,-24.902,0.000
1760229486.484,-35.156,-33.203,-18.066,-16.113,0.000
1760229486.488,-26.855,-31.738,-20.996,-4.883,0.000
1760229486.492,-24.902,-25.879,-20.508,-4.395,0.000
1760229486.496,-35.645,-29.785,-22.461,-23.438,0.000
1760229486.500,-37.598,-33.203,-26.855,-32.227,0.000
1760229486.503,-28.809,-29.297,-29.297,-18.555,0.000
1760229486.507,-33.203,-28.809,-30.273,-20.996,0.000
1760229486.511,-32.227,-29.785,-30.762,-27.832,0.000
1760229486.515,-26.855,-28.809,-26.855,-20.508,0.000
1760229486.519,-27.832,-29.785,-28.320,-17.578,0.000
1760229486.523,-18.555,-28.320,-28.809,-14.160,0.000
1760229486.527,-20.508,-24.414,-24.414,-18.555,0.000
1760229486.531,-36.133,-35.645,-23.438,-32.227,0.000
1760229486.535,-39.551,-41.504,-24.902,-32.715,0.000
1760229486.539,-41.016,-37.598,-23.926,-26.367,0.000
1760229486.543,-39.551,-38.574,-20.020,-30.762,0.000
1760229486.546,-27.832,-34.180,-17.578,-23.438,0.000
1760229486.550,-24.902,-29.785,-16.602,-21.484,0.000
1760229486.554,-35.156,-33.691,-14.160,-34.668,0.000
1760229486.558,-32.227,-39.062,-10.742,-37.598,0.000
1760229486.562,-28.320,-41.016,-7.324,-30.273,0.000
1760229486.566,-32.715,-38.086,-9.766,-26.367,0.000
1760229486.570,-32.227,-36.621,-17.090,-26.367,0.000
1760229486.574,-32.715,-34.668,-20.996,-33.691,0.000
1760229486.578,-34.180,-35.156,-22.461,-39.551,0.000
1760229486.582,-34.180,-40.039,-23.926,-32.715,0.000
1760229486.585,-34.668,-42.969,-28.809,-26.855,0.000
1760229486.589,-29.785,-37.598,-28.809,-30.273,0.000
1760229486.593,-26.855,-34.668,-31.738,-30.273,0.000
1760229486.597,-30.762,-35.645,-33.203,-28.320,0.000
1760229486.601,-20.020,-30.762,-25.391,-18.555,0.000
1760229486.605,-13.184,-35.156,-19.531,-7.324,0.000
1760229486.609,-18.555,-41.016,-20.996,-16.113,0.000
1760229486.613,-20.996,-36.621,-26.855,-24.902,0.000
1760229486.617,-16.113,-30.273,-26.855,-17.090,0.000
1760229486.621,-13.184,-28.320,-26.855,-10.742,0.000
1760229486.625,-11.719,-30.273,-26.367,-5.859,0.000
1760229486.628,-13.672,-33.203,-23.438,0.977,0.000
1760229486.632,-10.742,-34.180,-33.203,-7.812,0.000
1760229486.636,-2.930,-33.203,-32.715,-10.254,0.000
1760229486.640,-13.184,-35.645,-23.438,-13.672,0.000
1760229486.644,-19.043,-39.551,-19.043,-20.996,0.000
1760229486.648,-13.672,-40.527,-17.578,-13.672,0.000
1760229486.652,-13.672,-41.504,-20.020,-6.836,0.000
1760229486.656,-16.113,-39.062,-21.973,-6.348,0.000
1760229486.660,-18.555,-36.621,-20.996,-11.719,0.000
1760229486.664,-17.090,-36.621,-18.066,-14.648,0.000
1760229486.667,-11.230,-40.039,-21.484,-5.859,0.000
1760229486.671,-12.207,-41.016,-26.855,-3.906,0.000
1760229486.675,-27.832,-37.109,-27.344,-22.949,0.000
1760229486.679,-32.715,-38.086,-24.414,-25.391,0.000
1760229486.683,-24.414,-35.645,-21.484,-14.648,0.000
1760229486.687,-20.996,-33.691,-25.391,-18.066,0.000
1760229486.691,-24.902,-40.039,-23.926,-28.320,0.000
1760229486.695,-24.414,-35.156,-19.043,-33.691,0.000
1760229486.699,-25.391,-30.273,-21.973,-27.832,0.000
1760229486.703,-27.344,-37.598,-27.832,-25.879,0.000
1760229486.707,-32.715,-43.457,-29.297,-35.645,0.000
1760229486.710,-41.016,-41.016,-27.344,-42.969,0.000
1760229486.714,-30.273,-33.691,-28.320,-32.227,0.000
1760229486.718,-29.297,-36.621,-26.855,-22.949,0.000
1760229486.722,-35.645,-40.527,-23.438,-32.715,0.000
1760229486.726,-34.180,-35.645,-26.367,-49.805,0.000
1760229486.730,-32.227,-35.156,-26.367,-51.758,0.000
1760229486.734,-27.344,-38.086,-18.555,-40.527,0.000
1760229486.738,-35.645,-38.086,-18.066,-41.504,0.000
1760229486.742,-43.457,-36.621,-21.484,-40.527,0.000
1760229486.746,-41.016,-34.668,-27.832,-41.016,0.000
1760229486.750,-45.898,-31.738,-30.762,-37.598,0.000
1760229486.753,-41.016,-28.809,-29.785,-28.320,0.000
1760229486.757,-42.480,-31.738,-33.691,-33.203,0.000
1760229486.761,-45.898,-40.527,-34.180,-36.133,0.000
1760229486.765,-49.805,-38.574,-27.344,-33.691,0.000
1760229486.769,-48.340,-34.668,-22.949,-31.250,0.000
1760229486.773,-39.551,-34.668,-26.367,-35.156,0.000
1760229486.777,-44.434,-35.645,-28.809,-44.434,0.000
1760229486.781,-41.016,-34.180,-26.855,-32.227,0.000
1760229486.785,-41.016,-34.668,-25.391,-25.879,0.000
1760229486.789,-38.086,-36.133,-24.414,-27.344,0.000
1760229486.792,-31.250,-34.180,-20.996,-27.344,0.000
1760229486.796,-30.273,-37.109,-25.879,-36.133,0.000
1760229486.800,-25.879,-36.621,-30.273,-27.832,0.000
1760229486.804,-19.531,-31.250,-24.902,-15.137,0.000
1760229486.808,-24.414,-29.297,-22.461,-22.949,0.000
1760229486.812,-32.227,-27.344,-21.973,-32.227,0.000
1760229486.816,-33.691,-26.367,-25.879,-31.738,0.000
1760229486.820,-26.855,-25.879,-27.344,-15.625,0.000
1760229486.824,-23.926,-29.785,-25.879,-19.531,0.000
1760229486.828,-25.391,-32.227,-27.344,-31.738,0.000
1760229486.832,-34.668,-33.203,-29.297,-28.320,0.000
1760229486.835,-42.969,-35.645,-24.902,-30.762,0.000
1760229486.839,-35.645,-30.273,-22.949,-36.621,0.000
1760229486.843,-30.762,-26.855,-24.414,-37.598,0.000
1760229486.847,-32.715,-30.762,-19.531,-34.180,0.000
1760229486.851,-29.785,-39.551,-14.648,-14.160,0.000
1760229486.855,-25.879,-31.738,-19.043,-13.672,0.000
1760229486.859,-34.668,-20.996,-32.715,-37.598,0.000
1760229486.863,-40.039,-25.879,-29.297,-41.504,0.000
1760229486.867,-41.016,-21.973,-28.320,-40.039,0.000
1760229486.871,-40.527,-16.113,-32.715,-43.945,0.000
1760229486.874,-34.668,-20.508,-27.832,-37.109,0.000
1760229486.878,-27.344,-22.949,-26.855,-27.832,0.000
1760229486.882,-22.949,-18.555,-28.809,-25.879,0.000
1760229486.886,-17.090,-19.043,-24.902,-23.438,0.000
1760229486.890,-10.742,-24.902,-18.555,-14.160,0.000
1760229486.894,-25.391,-30.273,-27.344,-29.785,0.000
1760229486.898,-34.180,-26.367,-34.180,-41.016,0.000
1760229486.902,-28.320,-21.973,-34.668,-28.809,0.000
1760229486.906,-22.461,-24.902,-38.574,-23.926,0.000
1760229486.910,-19.043,-23.438,-31.250,-19.531,0.000
1760229486.914,-22.461,-22.461,-28.320,-18.555,0.000
1760229486.917,-27.832,-24.902,-34.180,-21.973,0.000
1760229486.921,-26.855,-29.785,-32.227,-25.391,0.000
1760229486.925,-31.738,-29.297,-31.738,-32.227,0.000
1760229486.929,-38.086,-25.391,-32.715,-33.691,0.000
1760229486.933,-31.250,-20.996,-33.691,-39.551,0.000
1760229486.937,-21.484,-14.648,-36.133,-35.645,0.000
1760229486.941,-22.461,-11.719,-34.180,-32.227,0.000
1760229486.945,-25.879,-16.602,-33.203,-40.039,0.000
1760229486.949,-27.832,-19.043,-32.227,-34.668,0.000
1760229486.953,-31.250,-18.555,-29.785,-22.461,0.000
1760229486.956,-30.273,-22.461,-29.785,-14.160,0.000
1760229486.960,-36.621,-26.367,-26.367,-22.949,0.000
1760229486.964,-32.715,-28.320,-28.809,-40.527,0.000
1760229486.968,-33.691,-28.809,-32.715,-35.645,0.000
1760229486.972,-42.480,-28.809,-30.273,-33.203,0.000
1760229486.976,-36.133,-28.320,-24.414,-38.086,0.000
1760229486.980,-40.527,-24.414,-25.391,-35.156,0.000
1760229486.984,-31.250,-21.484,-33.691,-30.273,0.000
1760229486.988,-18.555,-15.625,-29.785,-23.438,0.000
1760229486.992,-35.645,-17.090,-21.973,-36.621,0.000
1760229486.996,-51.270,-21.484,-28.320,-44.922,0.000
1760229486.999,-41.992,-20.996,-25.879,-25.391,0.000
1760229487.003,-40.039,-20.508,-20.996,-24.414,0.000
1760229487.007,-43.457,-22.461,-19.531,-36.133,0.000
1760229487.011,-39.551,-25.391,-18.066,-36.621,0.000
1760229487.015,-40.527,-27.832,-21.484,-36.621,0.000
1760229487.019,-34.180,-20.508,-20.020,-32.715,0.000
1760229487.023,-25.879,-14.160,-18.066,-29.785,0.000
1760229487.027,-33.691,-20.020,-23.926,-34.668,0.000
1760229487.031,-37.598,-23.438,-27.832,-33.691,0.000
1760229487.035,-30.762,-23.438,-25.879,-31.250,0.000
1760229487.039,-28.320,-21.973,-23.926,-33.691,0.000
1760229487.042,-34.668,-21.484,-25.391,-40.527,0.000
1760229487.046,-37.598,-21.973,-23.926,-24.902,0.000
1760229487.050,-37.598,-26.855,-23.926,-24.902,0.000
1760229487.054,-47.852,-32.715,-25.391,-44.434,0.000
1760229487.058,-44.922,-29.297,-28.320,-43.945,0.000
1760229487.062,-39.062,-25.391,-32.227,-41.016,0.000
1760229487.066,-38.574,-29.785,-31.738,-36.133,0.000
1760229487.070,-26.855,-26.367,-29.297,-29.297,0.000
1760229487.074,-25.391,-20.020,-28.320,-42.480,0.000
1760229487.078,-34.668,-31.738,-29.297,-50.781,0.000
1760229487.081,-39.551,-35.156,-29.297,-43.945,0.000
1760229487.085,-40.527,-28.809,-32.715,-44.922,0.000
1760229487.089,-37.109,-23.926,-32.715,-32.715,0.000
1760229487.093,-29.785,-20.020,-28.809,-21.484,0.000
1760229487.097,-31.738,-28.320,-29.785,-35.645,0.000
1760229487.101,-32.227,-29.785,-32.715,-36.133,0.000
1760229487.105,-32.227,-24.414,-32.715,-30.273,0.000
1760229487.109,-30.273,-24.414,-29.785,-32.715,0.000
1760229487.113,-35.156,-26.855,-33.203,-41.992,0.000
1760229487.117,-37.598,-30.762,-33.203,-45.898,0.000
1760229487.121,-36.133,-29.297,-32.715,-43.457,0.000
1760229487.124,-38.574,-28.809,-35.156,-49.316,0.000
1760229487.128,-37.109,-32.227,-36.621,-48.340,0.000
1760229487.132,-38.574,-33.691,-39.062,-51.270,0.000
1760229487.136,-39.551,-31.738,-37.598,-42.969,0.000
1760229487.140,-37.109,-33.691,-24.902,-29.785,0.000
1760229487.144,-15.625,-37.109,-19.043,-12.695,0.000
1760229487.148,-12.207,-27.832,-32.227,-13.672,0.000
1760229487.152,-48.340,-12.207,-35.645,-59.570,0.000
1760229487.156,-78.125,-8.301,-33.203,-93.750,0.000
1760229487.160,-100.098,-4.883,-33.203,-106.934,0.000
1760229487.163,-110.352,10.254,-31.250,-113.281,0.000
1760229487.167,-125.488,23.926,-32.227,-129.883,0.000
1760229487.171,-147.949,27.832,-35.156,-155.273,0.000
1760229487.175,-154.297,35.156,-43.457,-167.480,0.000
1760229487.179,-158.691,41.016,-42.480,-174.805,0.000
1760229487.183,-158.203,48.828,-41.504,-171.387,0.000
1760229487.187,-143.066,50.781,-43.457,-162.598,0.000
1760229487.191,-135.254,45.410,-42.480,-164.062,0.000
1760229487.195,-131.348,46.387,-46.387,-163.086,0.000
1760229487.199,-124.512,42.969,-53.711,-147.949,0.000
1760229487.202,-114.746,36.621,-59.082,-136.719,0.000
1760229487.206,-95.703,35.156,-61.035,-124.512,0.000
1760229487.210,-88.379,31.250,-65.430,-123.047,0.000
1760229487.214,-91.797,25.879,-62.500,-122.070,0.000
1760229487.218,-83.496,23.438,-49.805,-97.168,0.000
1760229487.222,-67.871,18.066,-48.340,-77.637,0.000
1760229487.226,-61.035,15.137,-51.758,-72.754,0.000
1760229487.230,-58.594,16.113,-48.340,-66.406,0.000
1760229487.234,-51.270,14.160,-49.316,-54.688,0.000
1760229487.238,-38.086,12.207,-47.363,-52.246,0.000
1760229487.242,-45.410,5.371,-44.922,-46.387,0.000
1760229487.245,-54.688,7.324,-49.316,-41.016,0.000
1760229487.249,-41.992,10.254,-53.223,-49.805,0.000
1760229487.253,-33.691,1.953,-55.176,-43.457,0.000
1760229487.257,-37.109,-3.418,-49.316,-34.668,0.000
1760229487.261,-42.969,-9.277,-46.875,-46.875,0.000
1760229487.265,-32.227,-12.207,-50.293,-50.781,0.000
1760229487.269,-27.832,-13.672,-52.246,-38.086,0.000
1760229487.273,-27.344,-11.230,-47.852,-36.621,0.000
1760229487.277,-25.391,-6.836,-45.410,-37.109,0.000
1760229487.281,-27.832,-8.789,-43.457,-33.203,0.000
1760229487.285,-22.949,-14.648,-41.504,-30.273,0.000
1760229487.288,-21.973,-18.555,-52.246,-39.551,0.000
1760229487.292,-20.508,-16.113,-49.316,-51.270,0.000
1760229487.296,-20.508,-20.020,-39.551,-43.945,0.000
1760229487.300,-24.414,-18.555,-38.086,-35.156,0.000
1760229487.304,-22.949,-13.672,-38.086,-27.832,0.000
1760229487.308,-22.461,-16.113,-38.574,-32.715,0.000
1760229487.312,-24.902,-21.973,-41.504,-35.156,0.000
1760229487.316,-29.297,-27.832,-43.457,-35.645,0.000
1760229487.320,-28.809,-29.785,-40.039,-41.016,0.000
1760229487.324,-28.809,-26.855,-37.109,-41.504,0.000
1760229487.328,-32.715,-20.508,-37.598,-43.945,0.000
1760229487.331,-26.367,-21.484,-39.551,-37.598,0.000
1760229487.335,-20.996,-22.949,-42.480,-30.273,0.000
1760229487.339,-24.902,-21.484,-41.016,-32.715,0.000
1760229487.343,-28.809,-23.926,-36.133,-36.621,0.000
1760229487.347,-27.832,-25.391,-33.203,-35.645,0.000
1760229487.351,-20.020,-20.996,-33.203,-24.902,0.000
1760229487.355,-16.113,-24.414,-28.320,-18.555,0.000
1760229487.359,-20.996,-22.949,-23.926,-22.949,0.000
1760229487.363,-20.996,-19.043,-26.367,-24.902,0.000
1760229487.367,-11.719,-16.602,-29.297,-14.160,0.000
1760229487.370,-13.184,-19.531,-30.273,-14.160,0.000
1760229487.374,-31.250,-22.461,-28.809,-28.809,0.000
1760229487.378,-36.133,-17.090,-27.832,-22.461,0.000
1760229487.382,-37.109,-20.996,-30.273,-24.902,0.000
1760229487.386,-34.180,-25.391,-29.297,-20.996,0.000
1760229487.390,-28.320,-20.508,-25.879,-15.625,0.000
1760229487.394,-32.715,-19.531,-24.902,-20.508,0.000
1760229487.398,-36.133,-24.902,-21.973,-23.926,0.000
1760229487.402,-30.762,-26.855,-23.926,-24.414,0.000
1760229487.406,-26.855,-21.973,-29.785,-30.762,0.000
1760229487.410,-35.156,-19.531,-29.785,-44.922,0.000
1760229487.413,-41.992,-25.391,-27.832,-41.504,0.000
1760229487.417,-41.504,-33.691,-30.762,-32.715,0.000
1760229487.421,-41.992,-36.133,-31.250,-27.344,0.000
1760229487.425,-40.527,-28.809,-27.832,-31.250,0.000
1760229487.429,-38.086,-27.832,-30.273,-33.691,0.000
1760229487.433,-18.066,-27.832,-31.738,-9.766,0.000
1760229487.437,-14.648,-26.367,-24.414,-0.488,0.000
1760229487.441,-44.922,-34.180,-21.973,-21.973,0.000
1760229487.445,-38.086,-40.039,-14.648,-11.230,0.000
1760229487.449,-27.832,-34.180,-14.160,-6.348,0.000
1760229487.452,-31.738,-33.691,-21.484,-12.695,0.000
1760229487.456,-27.344,-30.762,-22.949,-5.859,0.000
1760229487.460,-23.438,-24.414,-23.438,-17.090,0.000
1760229487.464,-19.531,-24.414,-26.367,-19.043,0.000
1760229487.468,-17.578,-26.367,-25.391,3.418,0.000
1760229487.472,-20.508,-32.227,-29.297,-7.324,0.000
1760229487.476,-19.043,-35.156,-38.086,-19.043,0.000
1760229487.480,-16.602,-35.645,-28.320,-7.812,0.000
1760229487.484,-14.648,-36.621,-26.367,-4.395,0.000
1760229487.488,-3.418,-32.715,-33.691,-8.301,0.000
1760229487.492,-11.230,-37.598,-28.809,-14.648,0.000
1760229487.495,-19.043,-41.504,-29.297,-21.484,0.000
1760229487.499,-11.230,-39.551,-28.320,-14.648,0.000
1760229487.503,-8.789,-40.039,-26.855,-12.695,0.000
1760229487.507,-12.207,-32.715,-28.809,-21.484,0.000
1760229487.511,-14.648,-29.785,-28.809,-20.996,0.000
1760229487.515,-13.672,-30.273,-28.809,-19.043,0.000
1760229487.519,-10.254,-27.344,-30.273,-20.996,0.000
1760229487.523,-15.137,-26.855,-28.809,-20.020,0.000
1760229487.527,-21.484,-24.902,-27.832,-23.926,0.000
1760229487.531,-28.320,-24.414,-29.297,-28.320,0.000
1760229487.534,-16.113,-26.367,-26.855,-22.949,0.000
1760229487.538,-8.789,-27.832,-27.832,-18.066,0.000
1760229487.542,-21.484,-25.879,-34.668,-20.508,0.000
1760229487.546,-20.508,-25.391,-32.227,-30.273,0.000
1760229487.550,-10.742,-25.879,-30.762,-22.461,0.000
1760229487.554,-18.555,-29.297,-33.691,-9.766,0.000
1760229487.558,-31.250,-28.320,-35.156,-19.043,0.000
1760229487.562,-22.461,-20.996,-33.203,-25.879,0.000
1760229487.566,-21.484,-23.438,-28.809,-29.785,0.000
1760229487.570,-19.531,-25.391,-35.645,-18.066,0.000
1760229487.574,-20.508,-25.391,-40.527,-14.648,0.000
1760229487.577,-24.414,-28.320,-33.203,-23.438,0.000
1760229487.581,-24.902,-26.367,-26.855,-20.508,0.000
1760229487.585,-22.949,-21.484,-27.344,-19.043,0.000
1760229487.589,-20.996,-22.949,-20.996,-16.602,0.000
1760229487.593,-25.879,-30.273,-16.602,-24.414,0.000
1760229487.597,-25.879,-31.738,-20.020,-26.855,0.000
1760229487.601,-24.414,-32.715,-20.996,-15.625,0.000
1760229487.605,-24.902,-29.297,-24.414,-15.137,0.000
1760229487.609,-30.762,-26.855,-25.391,-21.973,0.000
1760229487.613,-31.250,-27.832,-23.438,-23.438,0.000
1760229487.616,-28.809,-30.762,-27.832,-14.160,0.000
1760229487.620,-27.832,-35.156,-28.809,-8.789,0.000
1760229487.624,-33.691,-37.109,-27.344,-16.602,0.000
1760229487.628,-34.668,-34.668,-26.367,-21.484,0.000
1760229487.632,-32.715,-30.762,-27.832,-12.207,0.000
1760229487.636,-30.762,-29.785,-31.250,-11.230,0.000
1760229487.640,-29.297,-29.785,-28.809,-14.648,0.000
1760229487.644,-31.738,-28.320,-27.832,-8.789,0.000
1760229487.648,-29.297,-27.344,-32.227,-15.137,0.000
1760229487.652,-28.320,-34.180,-30.273,-16.113,0.000
1760229487.656,-28.809,-34.668,-22.461,-19.043,0.000
1760229487.659,-29.297,-30.762,-25.391,-18.555,0.000
1760229487.663,-38.574,-35.645,-29.297,-11.230,0.000
1760229487.667,-44.922,-38.574,-34.668,-24.902,0.000
1760229487.671,-38.574,-37.109,-37.109,-32.715,0.000
1760229487.675,-34.180,-38.574,-33.203,-32.715,0.000
1760229487.679,-40.527,-39.551,-35.156,-35.156,0.000
1760229487.683,-41.016,-38.574,-38.086,-35.156,0.000
1760229487.687,-33.203,-36.133,-34.668,-27.832,0.000
1760229487.691,-32.715,-29.785,-29.297,-29.785,0.000
1760229487.695,-34.668,-29.297,-30.273,-43.457,0.000
1760229487.699,-29.785,-31.738,-34.668,-40.527,0.000
1760229487.702,-24.902,-29.297,-28.809,-31.738,0.000
1760229487.706,-21.973,-28.809,-27.344,-19.043,0.000
1760229487.710,-25.391,-29.785,-29.785,-17.090,0.000
1760229487.714,-28.809,-30.273,-25.879,-33.691,0.000
1760229487.718,-25.879,-29.297,-23.438,-30.762,0.000
1760229487.722,-28.809,-30.273,-25.879,-23.438,0.000
1760229487.726,-28.320,-28.809,-27.344,-28.320,0.000
1760229487.730,-24.414,-24.902,-31.250,-33.691,0.000
1760229487.734,-36.621,-24.902,-30.273,-32.227,0.000
1760229487.738,-39.062,-27.344,-25.391,-31.738,0.000
1760229487.741,-28.809,-28.809,-23.438,-33.203,0.000
1760229487.745,-29.297,-27.832,-30.273,-34.668,0.000
1760229487.749,-33.691,-28.809,-37.598,-32.715,0.000
1760229487.753,-35.156,-35.156,-31.250,-27.832,0.000
1760229487.757,-41.992,-35.156,-25.391,-37.598,0.000
1760229487.761,-48.340,-31.250,-22.949,-40.039,0.000
1760229487.765,-47.852,-28.809,-24.414,-32.715,0.000
1760229487.769,-36.133,-24.414,-27.832,-31.738,0.000
1760229487.773,-30.762,-23.926,-23.926,-41.016,0.000
1760229487.777,-35.645,-25.879,-24.902,-40.527,0.000
1760229487.781,-31.250,-29.297,-25.879,-31.250,0.000
1760229487.784,-32.227,-29.297,-20.508,-26.855,0.000
1760229487.788,-36.133,-24.414,-16.602,-18.555,0.000
1760229487.792,-33.691,-25.879,-17.090,-19.531,0.000
1760229487.796,-27.832,-25.391,-23.926,-21.973,0.000
1760229487.800,-26.367,-20.996,-26.367,-20.020,0.000
1760229487.804,-35.156,-26.855,-25.391,-21.973,0.000
1760229487.808,-43.457,-34.668,-24.902,-26.855,0.000
1760229487.812,-51.758,-36.133,-28.320,-40.527,0.000
1760229487.816,-43.945,-33.691,-32.227,-41.992,0.000
1760229487.820,-39.551,-29.785,-30.273,-33.203,0.000
1760229487.823,-41.992,-31.250,-30.762,-41.504,0.000
1760229487.827,-39.551,-30.762,-28.320,-34.668,0.000
1760229487.831,-33.203,-29.785,-31.738,-26.367,0.000
1760229487.835,-24.414,-29.297,-30.273,-27.344,0.000
1760229487.839,-27.832,-32.715,-23.926,-27.832,0.000
1760229487.843,-33.691,-36.621,-28.320,-32.227,0.000
1760229487.847,-37.109,-32.715,-27.344,-37.109,0.000
1760229487.851,-30.762,-25.391,-24.414,-30.762,0.000
1760229487.855,-19.531,-30.273,-25.391,-25.391,0.000
1760229487.859,-28.809,-35.156,-24.414,-35.156,0.000
1760229487.863,-38.086,-28.809,-22.949,-31.738,0.000
1760229487.866,-31.250,-24.902,-21.973,-23.438,0.000
1760229487.870,-30.273,-28.809,-21.973,-25.879,0.000
1760229487.874,-31.738,-26.855,-21.973,-28.809,0.000
1760229487.878,-36.133,-26.367,-26.367,-35.645,0.000
1760229487.882,-35.156,-30.273,-22.461,-32.227,0.000
1760229487.886,-25.391,-30.273,-25.391,-16.113,0.000
1760229487.890,-30.762,-30.762,-30.273,-25.879,0.000
1760229487.894,-44.922,-32.227,-28.320,-40.527,0.000
1760229487.898,-41.016,-31.738,-28.809,-34.668,0.000
1760229487.902,-31.250,-30.273,-30.762,-28.320,0.000
1760229487.905,-23.926,-24.902,-34.180,-31.250,0.000
1760229487.909,-24.902,-24.414,-33.691,-41.992,0.000
1760229487.913,-30.273,-27.832,-32.227,-39.062,0.000
1760229487.917,-34.668,-26.367,-29.297,-25.391,0.000
1760229487.921,-30.762,-26.855,-24.902,-20.996,0.000
1760229487.925,-36.133,-27.344,-30.273,-30.273,0.000
1760229487.929,-42.969,-27.832,-33.691,-37.109,0.000
1760229487.933,-38.086,-25.391,-32.715,-32.715,0.000
1760229487.937,-32.227,-26.855,-33.203,-35.156,0.000
1760229487.941,-32.227,-33.203,-28.320,-49.316,0.000
1760229487.945,-29.785,-26.367,-27.832,-41.504,0.000
1760229487.948,-28.320,-24.414,-27.344,-31.250,0.000
1760229487.952,-31.250,-25.879,-27.832,-37.598,0.000
1760229487.956,-31.250,-23.438,-27.832,-37.598,0.000
1760229487.960,-26.855,-27.344,-27.832,-41.504,0.000
1760229487.964,-34.180,-29.785,-28.320,-44.922,0.000
1760229487.968,-36.133,-25.391,-23.926,-34.180,0.000
1760229487.972,-26.367,-27.344,-25.879,-27.832,0.000
1760229487.976,-33.203,-26.367,-28.320,-39.062,0.000
1760229487.980,-42.480,-24.902,-31.738,-42.969,0.000
1760229487.984,-30.273,-26.855,-28.320,-32.715,0.000
1760229487.987,-26.367,-28.809,-24.414,-30.762,0.000
1760229487.991,-38.574,-28.320,-25.879,-38.086,0.000
1760229487.995,-38.086,-25.391,-27.832,-44.434,0.000
1760229487.999,-25.391,-20.508,-29.297,-41.992,0.000
1760229488.003,-25.879,-25.879,-25.879,-41.016,0.000
1760229488.007,-34.668,-31.250,-22.461,-42.969,0.000
1760229488.011,-32.715,-26.367,-19.531,-37.109,0.000
1760229488.015,-33.203,-24.902,-21.973,-32.715,0.000
1760229488.019,-29.785,-25.391,-26.367,-26.367,0.000
1760229488.023,-25.879,-21.484,-22.949,-20.508,0.000
1760229488.027,-37.598,-19.531,-20.996,-27.344,0.000
1760229488.030,-39.551,-18.555,-22.461,-34.180,0.000
1760229488.034,-30.762,-14.648,-25.391,-18.555,0.000
1760229488.038,-33.203,-18.066,-26.367,-14.648,0.000
1760229488.042,-37.598,-23.438,-22.949,-26.855,0.000
1760229488.046,-35.645,-23.438,-21.484,-26.367,0.000
1760229488.050,-38.086,-26.855,-25.391,-23.926,0.000
1760229488.054,-35.156,-28.809,-32.227,-22.949,0.000
1760229488.058,-36.133,-29.785,-29.785,-35.645,0.000
1760229488.062,-42.480,-33.203,-26.855,-41.504,0.000
1760229488.066,-42.969,-35.156,-28.809,-34.668,0.000
1760229488.070,-37.598,-33.203,-26.855,-32.715,0.000
1760229488.073,-31.250,-26.367,-24.414,-27.344,0.000
1760229488.077,-27.344,-22.461,-20.020,-32.715,0.000
1760229488.081,-30.762,-26.367,-23.438,-31.738,0.000
1760229488.085,-36.133,-25.879,-27.344,-18.066,0.000
1760229488.089,-34.180,-26.855,-23.438,-21.973,0.000
1760229488.093,-31.250,-28.809,-21.973,-27.832,0.000
1760229488.097,-34.668,-28.320,-21.973,-30.762,0.000
1760229488.101,-30.762,-29.785,-23.438,-32.227,0.000
1760229488.105,-27.832,-29.297,-28.320,-38.574,0.000
1760229488.109,-34.180,-28.809,-24.902,-32.715,0.000
1760229488.112,-28.809,-30.273,-22.949,-21.484,0.000
1760229488.116,-24.902,-27.832,-30.762,-25.879,0.000
1760229488.120,-22.949,-25.391,-28.320,-27.832,0.000
1760229488.124,-10.254,-28.809,-29.297,-28.320,0.000
1760229488.128,-8.789,-30.273,-30.273,-23.926,0.000
1760229488.132,-13.672,-32.715,-23.438,-23.438,0.000
1760229488.136,-11.230,-31.738,-25.879,-20.996,0.000
1760229488.140,-16.113,-24.414,-27.344,-20.020,0.000
1760229488.144,-25.391,-22.461,-29.297,-26.855,0.000
1760229488.148,-32.227,-26.367,-33.203,-26.367,0.000
1760229488.152,-31.250,-32.715,-25.879,-16.602,0.000
1760229488.155,-29.297,-31.250,-23.926,-22.949,0.000
1760229488.159,-29.297,-23.926,-24.902,-35.645,0.000
1760229488.163,-25.879,-20.508,-26.855,-34.180,0.000
1760229488.167,-18.066,-20.020,-29.785,-23.926,0.000
1760229488.171,-20.020,-19.531,-31.250,-15.625,0.000
1760229488.175,-22.461,-19.043,-29.297,-23.438,0.000
1760229488.179,-16.113,-15.137,-23.926,-24.902,0.000
1760229488.183,-15.625,-23.926,-26.367,-20.020,0.000
1760229488.187,-19.043,-33.203,-26.367,-20.508,0.000
1760229488.191,-27.832,-32.715,-28.809,-22.461,0.000
1760229488.195,-30.762,-34.180,-30.273,-32.227,0.000
1760229488.198,-24.902,-25.879,-30.273,-42.969,0.000
1760229488.202,-24.414,-24.414,-33.203,-32.715,0.000
1760229488.206,-27.344,-32.227,-29.297,-32.227,0.000
1760229488.210,-37.109,-28.809,-26.855,-43.945,0.000
1760229488.214,-35.156,-21.484,-29.785,-34.668,0.000
1760229488.218,-35.156,-20.508,-26.367,-19.043,0.000
1760229488.222,-39.062,-20.508,-18.555,-24.414,0.000
1760229488.226,-36.133,-20.020,-12.695,-22.461,0.000
1760229488.230,-39.062,-23.438,-16.113,-25.391,0.000
1760229488.234,-33.203,-21.973,-24.414,-35.156,0.000
1760229488.237,-35.156,-23.926,-28.809,-34.180,0.000
1760229488.241,-47.852,-28.809,-33.203,-34.668,0.000
1760229488.245,-40.527,-26.367,-31.250,-36.621,0.000
1760229488.249,-32.227,-24.902,-27.832,-33.203,0.000
1760229488.253,-30.273,-23.926,-29.297,-29.785,0.000
1760229488.257,-29.297,-24.902,-23.926,-36.621,0.000
1760229488.261,-42.969,-30.762,-26.367,-36.621,0.000
1760229488.265,-46.875,-27.832,-27.832,-33.203,0.000
1760229488.269,-41.504,-25.391,-24.902,-37.598,0.000
1760229488.273,-42.969,-30.273,-32.715,-35.156,0.000
1760229488.276,-41.504,-33.691,-35.156,-36.133,0.000
1760229488.280,-30.273,-30.762,-30.762,-29.297,0.000
1760229488.284,-20.996,-27.344,-31.738,-28.809,0.000
1760229488.288,-26.855,-32.227,-33.203,-34.668,0.000
1760229488.292,-36.621,-31.738,-32.715,-33.691,0.000
1760229488.296,-31.738,-32.227,-30.273,-29.785,0.000
1760229488.300,-24.902,-32.715,-29.297,-21.973,0.000
1760229488.304,-25.391,-30.762,-26.855,-16.602,0.000
1760229488.308,-31.250,-27.832,-24.414,-21.973,0.000
1760229488.312,-36.133,-30.273,-28.320,-32.715,0.000
1760229488.316,-30.762,-35.156,-25.879,-30.273,0.000
1760229488.319,-19.043,-31.250,-21.484,-22.949,0.000
1760229488.323,-26.367,-27.832,-24.902,-20.996,0.000
1760229488.327,-39.551,-34.180,-26.855,-31.738,0.000
1760229488.331,-35.645,-36.621,-29.785,-39.062,0.000
1760229488.335,-26.855,-36.133,-32.227,-31.250,0.000
1760229488.339,-25.391,-40.527,-30.762,-18.555,0.000
1760229488.343,-30.273,-36.621,-28.320,-21.484,0.000
1760229488.347,-27.832,-33.203,-23.926,-20.508,0.000
1760229488.351,-26.367,-35.645,-27.344,-18.555,0.000
1760229488.355,-23.438,-30.762,-32.715,-27.832,0.000
1760229488.359,-21.973,-26.367,-36.133,-31.250,0.000
1760229488.362,-19.043,-26.367,-39.551,-32.715,0.000
1760229488.366,-19.531,-27.832,-32.227,-20.020,0.000
1760229488.370,-19.531,-24.902,-20.996,-8.301,0.000
1760229488.374,-19.043,-22.949,-21.973,-13.184,0.000
1760229488.378,-22.461,-24.414,-26.855,-22.949,0.000
1760229488.382,-23.926,-22.949,-28.320,-23.438,0.000
1760229488.386,-21.484,-20.020,-21.973,-11.719,0.000
1760229488.390,-16.602,-22.949,-19.043,-18.066,0.000
1760229488.394,-22.461,-27.832,-22.949,-13.184,0.000
1760229488.398,-28.809,-31.250,-23.926,-9.277,0.000
1760229488.401,-23.438,-28.809,-17.578,-17.578,0.000
1760229488.405,-17.090,-22.461,-17.090,-17.090,0.000
1760229488.409,-19.043,-23.926,-24.414,-17.090,0.000
1760229488.413,-22.461,-24.902,-24.414,-8.301,0.000
1760229488.417,-20.996,-24.414,-22.949,-13.184,0.000
1760229488.421,-14.160,-29.297,-24.414,-20.996,0.000
1760229488.425,-16.113,-24.902,-28.320,-26.367,0.000
1760229488.429,-26.855,-18.066,-29.297,-29.297,0.000
1760229488.433,-29.297,-20.996,-24.414,-23.438,0.000
1760229488.437,-18.555,-23.926,-21.484,-11.230,0.000
1760229488.441,-18.555,-23.438,-25.391,-22.949,0.000
1760229488.444,-31.250,-33.203,-30.273,-30.273,0.000
1760229488.448,-34.668,-35.645,-30.273,-29.785,0.000
1760229488.452,-23.926,-24.414,-29.785,-23.926,0.000
1760229488.456,-19.043,-19.531,-29.785,-15.625,0.000
1760229488.460,-21.973,-22.461,-37.109,-33.203,0.000
1760229488.464,-22.461,-24.902,-35.156,-38.086,0.000
1760229488.468,-26.855,-29.785,-27.832,-23.926,0.000
1760229488.472,-34.180,-35.156,-33.691,-35.156,0.000
1760229488.476,-40.527,-30.273,-37.109,-43.457,0.000
1760229488.480,-37.598,-19.531,-34.668,-43.945,0.000
1760229488.484,-35.156,-19.043,-35.645,-40.527,0.000
1760229488.487,-33.691,-28.320,-36.133,-23.438,0.000
1760229488.491,-35.645,-30.762,-33.691,-20.020,0.000
1760229488.495,-44.922,-28.320,-29.785,-36.621,0.000
1760229488.499,-44.922,-32.715,-25.391,-24.902,0.000
1760229488.503,-42.969,-32.227,-25.879,-9.766,0.000
1760229488.507,-38.574,-22.949,-30.273,-32.227,0.000
1760229488.511,-29.785,-22.949,-23.438,-32.227,0.000
1760229488.515,-35.645,-26.855,-19.043,-24.414,0.000
1760229488.519,-44.434,-26.367,-26.367,-40.039,0.000
1760229488.523,-44.434,-26.855,-20.996,-43.945,0.000
1760229488.526,-43.457,-25.391,-18.066,-37.598,0.000
1760229488.530,-44.434,-20.508,-15.137,-37.109,0.000
1760229488.534,-43.945,-18.555,-19.043,-33.203,0.000
1760229488.538,-45.898,-20.020,-13.184,-37.598,0.000
1760229488.542,-51.270,-18.066,-4.883,-53.223,0.000
1760229488.546,-64.453,-17.090,-14.160,-60.059,0.000
1760229488.550,-68.359,-25.391,-2.930,-50.293,0.000
1760229488.554,-69.824,-17.090,3.906,-55.664,0.000
1760229488.558,-78.613,-3.906,-2.441,-77.148,0.000
1760229488.562,-83.008,-4.883,16.602,-78.125,0.000
1760229488.566,-93.750,-3.906,8.789,-83.984,0.000
1760229488.569,-108.887,10.254,31.738,-101.074,0.000
1760229488.573,-137.695,16.113,45.898,-132.324,0.000
1760229488.577,-154.297,-2.930,26.855,-150.391,0.000
1760229488.581,-168.457,2.930,46.387,-163.086,0.000
1760229488.585,-188.965,28.809,61.035,-174.316,0.000
1760229488.589,-196.289,38.574,67.871,-184.570,0.000
1760229488.593,-225.098,37.109,77.148,-221.680,0.000
1760229488.597,-249.512,36.621,80.566,-239.746,0.000
1760229488.601,-244.629,43.457,81.543,-239.746,0.000
1760229488.605,-256.348,51.270,79.590,-242.188,0.000
1760229488.608,-271.973,63.477,79.590,-248.535,0.000
1760229488.612,-274.902,64.941,83.008,-267.578,0.000
1760229488.616,-265.625,67.871,83.496,-259.766,0.000
1760229488.620,-247.070,73.242,74.219,-246.094,0.000
1760229488.624,-233.398,68.359,75.684,-236.816,0.000
1760229488.628,-225.098,65.430,73.242,-217.773,0.000
1760229488.632,-208.984,66.406,53.711,-198.730,0.000
1760229488.636,-179.688,57.617,41.992,-177.246,0.000
1760229488.640,-162.598,47.363,38.574,-158.691,0.000
1760229488.644,-146.973,36.621,32.227,-150.879,0.000
1760229488.648,-123.047,31.250,24.902,-125.000,0.000
1760229488.651,-102.539,22.461,14.160,-97.656,0.000
1760229488.655,-79.590,6.836,4.395,-78.125,0.000
1760229488.659,-57.617,1.953,-6.348,-64.941,0.000
1760229488.663,-45.410,-4.395,-17.090,-51.758,0.000
1760229488.667,-33.203,-17.578,-23.438,-24.414,0.000
1760229488.671,-12.695,-20.020,-30.273,-4.395,0.000
1760229488.675,-0.977,-21.973,-39.551,-6.348,0.000
1760229488.679,6.348,-31.738,-43.945,2.441,0.000
1760229488.683,17.578,-33.203,-40.527,22.461,0.000
1760229488.687,27.832,-35.645,-52.246,21.484,0.000
1760229488.690,29.785,-46.387,-58.105,22.461,0.000
1760229488.694,28.320,-53.711,-57.617,33.203,0.000
1760229488.698,34.668,-53.711,-63.477,38.574,0.000
1760229488.702,49.805,-55.176,-63.965,43.457,0.000
1760229488.706,54.199,-57.617,-62.012,50.781,0.000
1760229488.710,53.711,-51.270,-64.941,52.246,0.000
1760229488.714,51.758,-55.664,-66.406,55.176,0.000
1760229488.718,51.270,-63.965,-63.477,58.594,0.000
1760229488.722,59.570,-64.453,-68.848,50.781,0.000
1760229488.726,57.129,-61.523,-71.289,42.969,0.000
1760229488.730,48.828,-61.523,-72.754,41.016,0.000
1760229488.733,48.340,-63.965,-77.637,47.363,0.000
1760229488.737,50.781,-62.500,-73.242,52.246,0.000
1760229488.741,57.617,-61.523,-64.453,43.945,0.000
1760229488.745,45.410,-63.965,-63.965,42.480,0.000
1760229488.749,38.574,-62.988,-65.918,50.293,0.000
1760229488.753,47.852,-56.641,-64.453,47.852,0.000
1760229488.757,41.992,-59.082,-60.547,41.504,0.000
1760229488.761,33.203,-63.965,-61.035,35.645,0.000
1760229488.765,31.250,-63.477,-61.523,25.879,0.000
1760229488.769,41.016,-59.082,-60.059,40.527,0.000
1760229488.773,38.574,-59.570,-60.547,46.387,0.000
1760229488.776,30.273,-62.500,-57.617,27.832,0.000
1760229488.780,28.320,-59.082,-53.711,40.039,0.000
1760229488.784,30.762,-57.617,-56.641,52.246,0.000
1760229488.788,26.367,-58.594,-64.453,41.016,0.000
1760229488.792,14.160,-56.641,-64.453,28.320,0.000
1760229488.796,14.648,-53.711,-58.105,23.438,0.000
1760229488.800,13.672,-50.781,-62.012,30.762,0.000
1760229488.804,15.625,-53.711,-66.895,28.320,0.000
1760229488.808,11.230,-58.594,-65.918,17.090,0.000
1760229488.812,6.836,-54.199,-62.012,14.160,0.000
1760229488.815,14.160,-48.828,-54.688,19.043,0.000
1760229488.819,10.742,-50.781,-53.711,18.066,0.000
1760229488.823,5.371,-51.758,-58.105,9.277,0.000
1760229488.827,12.695,-45.898,-51.270,8.301,0.000
1760229488.831,17.090,-42.969,-42.969,20.508,0.000
1760229488.835,3.418,-45.898,-46.875,17.578,0.000
1760229488.839,1.465,-46.387,-45.410,6.836,0.000
1760229488.843,4.395,-43.457,-43.457,-1.465,0.000
1760229488.847,6.348,-38.086,-46.387,-1.953,0.000
1760229488.851,8.301,-36.133,-47.852,6.348,0.000
1760229488.855,2.441,-39.551,-48.828,4.883,0.000
1760229488.858,-2.441,-43.457,-47.363,-0.977,0.000
1760229488.862,-2.930,-43.457,-44.922,-1.465,0.000
1760229488.866,-11.719,-43.457,-41.992,4.883,0.000
1760229488.870,-13.184,-43.457,-37.598,4.883,0.000
1760229488.874,-9.766,-41.992,-44.434,-1.953,0.000
1760229488.878,-15.625,-43.945,-47.852,1.953,0.000
1760229488.882,-11.230,-42.969,-35.156,2.441,0.000
1760229488.886,-10.254,-39.062,-36.621,-11.230,0.000
1760229488.890,-12.695,-41.016,-39.551,-18.555,0.000
1760229488.894,-14.648,-39.551,-37.109,-14.648,0.000
1760229488.898,-9.766,-35.645,-34.668,-9.277,0.000
1760229488.901,-3.418,-34.668,-29.785,0.977,0.000
1760229488.905,-2.930,-32.227,-31.250,9.277,0.000
1760229488.909,-3.906,-33.691,-34.180,-1.953,0.000
1760229488.913,-9.277,-34.180,-31.738,-4.883,0.000
1760229488.917,-7.324,-34.668,-28.320,-0.488,0.000
1760229488.921,-0.488,-37.598,-27.832,5.371,0.000
1760229488.925,-7.324,-35.156,-24.414,8.301,0.000
1760229488.929,-18.066,-30.273,-21.484,-0.977,0.000
1760229488.933,-9.277,-30.273,-24.902,-7.324,0.000
1760229488.937,-1.953,-36.133,-25.879,-0.977,0.000
1760229488.940,-1.953,-31.738,-26.367,-1.465,0.000
1760229488.944,-7.324,-34.180,-24.414,-6.348,0.000
1760229488.948,-18.555,-34.668,-30.762,-10.254,0.000
1760229488.952,-16.113,-32.227,-37.109,-13.184,0.000
1760229488.956,-14.648,-37.598,-31.738,-18.555,0.000
1760229488.960,-21.973,-36.133,-28.320,-28.320,0.000
1760229488.964,-20.996,-33.691,-27.344,-19.531,0.000
1760229488.968,-14.648,-36.621,-32.227,-11.230,0.000
1760229488.972,-15.625,-36.621,-30.762,-12.695,0.000
1760229488.976,-16.113,-31.250,-23.926,-14.648,0.000
1760229488.979,-19.043,-24.414,-27.832,-18.555,0.000
1760229488.983,-22.461,-25.879,-30.762,-16.602,0.000
1760229488.987,-20.996,-32.227,-26.855,-17.090,0.000
1760229488.991,-16.602,-34.668,-25.879,-20.020,0.000
1760229488.995,-18.555,-32.715,-25.879,-25.391,0.000
1760229488.999,-15.137,-33.691,-27.832,-18.066,0.000
1760229489.003,-7.812,-32.227,-30.273,-9.766,0.000
1760229489.007,-16.113,-32.227,-29.785,-17.090,0.000
1760229489.011,-23.926,-32.227,-35.645,-20.508,0.000
1760229489.015,-25.879,-27.832,-33.203,-20.996,0.000
1760229489.019,-25.879,-33.203,-34.180,-26.855,0.000
1760229489.022,-27.344,-32.715,-40.527,-20.996,0.000
1760229489.026,-30.273,-28.320,-41.504,-25.879,0.000
1760229489.030,-21.973,-31.250,-43.457,-30.762,0.000
1760229489.034,-21.484,-33.691,-41.016,-22.949,0.000
1760229489.038,-25.391,-36.133,-36.621,-23.926,0.000
1760229489.042,-25.391,-36.133,-33.691,-28.809,0.000
1760229489.046,-23.438,-29.297,-36.621,-27.832,0.000
1760229489.050,-18.066,-30.762,-41.016,-25.879,0.000
1760229489.054,-10.742,-33.691,-39.551,-20.020,0.000
1760229489.058,-12.207,-29.785,-38.086,-20.996,0.000
1760229489.061,-27.344,-26.855,-35.645,-36.133,0.000
1760229489.065,-24.414,-24.414,-36.621,-37.598,0.000
1760229489.069,-21.484,-24.902,-38.574,-24.414,0.000
1760229489.073,-21.973,-30.762,-31.738,-14.648,0.000
1760229489.077,-18.066,-33.203,-25.879,-14.648,0.000
1760229489.081,-21.973,-32.227,-25.879,-15.625,0.000
1760229489.085,-21.484,-28.809,-22.949,-9.277,0.000
1760229489.089,-30.273,-28.809,-28.809,-12.695,0.000
1760229489.093,-36.621,-34.180,-33.203,-20.020,0.000
1760229489.097,-26.855,-34.180,-27.344,-14.160,0.000
1760229489.101,-22.949,-37.598,-32.227,-16.113,0.000
1760229489.104,-23.438,-39.551,-37.598,-21.484,0.000
1760229489.108,-31.250,-30.273,-32.715,-22.949,0.000
1760229489.112,-28.809,-23.926,-26.855,-20.996,0.000
1760229489.116,-25.391,-28.809,-26.367,-17.090,0.000
1760229489.120,-31.250,-34.180,-26.855,-17.578,0.000
1760229489.124,-34.180,-31.250,-24.902,-29.785,0.000
1760229489.128,-32.715,-27.344,-21.973,-32.715,0.000
1760229489.132,-31.738,-33.691,-23.438,-28.320,0.000
1760229489.136,-22.949,-33.691,-27.832,-30.762,0.000
1760229489.140,-20.508,-28.320,-28.320,-31.250,0.000
1760229489.144,-31.250,-32.715,-28.809,-32.715,0.000
1760229489.147,-35.156,-33.203,-32.715,-33.203,0.000
1760229489.151,-26.367,-28.320,-30.273,-23.926,0.000
1760229489.155,-27.344,-27.344,-25.879,-21.973,0.000
1760229489.159,-32.715,-28.809,-27.344,-23.438,0.000
1760229489.163,-34.180,-30.762,-29.785,-21.484,0.000
1760229489.167,-29.297,-24.414,-27.832,-25.391,0.000
1760229489.171,-26.367,-22.461,-26.855,-24.902,0.000
1760229489.175,-31.738,-23.926,-25.391,-25.879,0.000
1760229489.179,-40.039,-26.855,-25.879,-34.180,0.000
1760229489.183,-38.086,-26.855,-26.367,-25.391,0.000
1760229489.186,-29.297,-24.414,-27.344,-15.137,0.000
1760229489.190,-26.367,-20.020,-30.762,-14.648,0.000
1760229489.194,-23.926,-20.020,-26.855,-19.043,0.000
1760229489.198,-29.785,-26.367,-29.297,-22.461,0.000
1760229489.202,-27.832,-25.391,-28.809,-20.508,0.000
1760229489.206,-26.367,-27.832,-29.785,-24.414,0.000
1760229489.210,-32.715,-25.879,-31.250,-30.762,0.000
1760229489.214,-33.691,-21.973,-33.691,-36.133,0.000
1760229489.218,-27.832,-24.414,-35.645,-26.855,0.000
1760229489.222,-20.508,-24.414,-33.203,-20.020,0.000
1760229489.226,-25.879,-29.785,-35.156,-23.926,0.000
1760229489.229,-28.320,-28.809,-34.668,-26.367,0.000
1760229489.233,-21.484,-21.973,-31.250,-25.391,0.000
1760229489.237,-16.113,-20.508,-28.809,-20.508,0.000
1760229489.241,-23.926,-19.531,-27.344,-22.949,0.000
1760229489.245,-32.227,-20.020,-26.855,-35.645,0.000
1760229489.249,-20.996,-26.367,-26.367,-30.762,0.000
1760229489.253,-11.230,-24.414,-25.391,-18.555,0.000
1760229489.257,-19.043,-25.879,-26.367,-28.320,0.000
1760229489.261,-21.973,-24.414,-24.414,-29.785,0.000
1760229489.265,-21.484,-21.484,-22.949,-20.020,0.000
1760229489.269,-26.855,-22.949,-24.902,-14.648,0.000
1760229489.272,-29.785,-20.996,-23.438,-22.949,0.000
1760229489.276,-33.203,-21.484,-21.484,-32.227,0.000
1760229489.280,-32.227,-26.855,-23.438,-34.668,0.000
1760229489.284,-25.879,-30.273,-20.020,-27.832,0.000
1760229489.288,-26.367,-25.879,-25.391,-28.320,0.000
1760229489.292,-27.832,-25.391,-33.691,-40.039,0.000
1760229489.296,-23.926,-28.809,-27.832,-26.367,0.000
1760229489.300,-25.879,-25.879,-23.438,-14.648,0.000
1760229489.304,-27.344,-26.367,-24.414,-17.090,0.000
1760229489.308,-31.250,-35.156,-22.949,-20.020,0.000
1760229489.311,-29.785,-37.109,-25.879,-19.531,0.000
1760229489.315,-33.691,-34.668,-30.273,-28.809,0.000
1760229489.319,-38.086,-32.715,-19.531,-29.785,0.000
1760229489.323,-31.250,-32.227,-7.324,-17.090,0.000
1760229489.327,-32.227,-29.785,-13.672,-24.902,0.000
1760229489.331,-33.691,-29.785,-17.090,-25.879,0.000
1760229489.335,-25.879,-30.273,-16.602,-11.230,0.000
1760229489.339,-19.531,-28.809,-21.484,-6.348,0.000
1760229489.343,-27.344,-29.297,-21.973,-12.207,0.000
1760229489.347,-30.762,-29.297,-23.438,-19.043,0.000
1760229489.350,-33.203,-31.250,-26.367,-20.508,0.000
1760229489.354,-31.738,-31.250,-23.438,-16.602,0.000
1760229489.358,-26.855,-32.715,-25.879,-20.508,0.000
1760229489.362,-28.809,-32.715,-32.715,-31.738,0.000
1760229489.366,-32.227,-27.832,-31.738,-31.738,0.000
1760229489.370,-31.738,-29.297,-26.855,-28.320,0.000
1760229489.374,-34.668,-33.203,-32.715,-26.367,0.000
1760229489.378,-36.133,-36.133,-39.551,-26.367,0.000
1760229489.382,-36.133,-33.203,-33.203,-32.227,0.000
1760229489.386,-41.504,-31.738,-33.203,-29.297,0.000
1760229489.390,-37.598,-38.574,-39.551,-33.691,0.000
1760229489.393,-37.598,-36.133,-33.691,-41.016,0.000
1760229489.397,-36.621,-26.855,-27.832,-34.180,0.000
1760229489.401,-23.926,-25.391,-34.180,-28.809,0.000
1760229489.405,-23.926,-30.273,-31.738,-32.715,0.000
1760229489.409,-30.762,-32.227,-26.855,-36.133,0.000
1760229489.413,-30.273,-30.762,-28.320,-34.668,0.000
1760229489.417,-28.809,-33.203,-34.180,-30.273,0.000
1760229489.421,-25.879,-28.809,-33.691,-23.438,0.000
1760229489.425,-25.391,-25.391,-29.785,-19.043,0.000
1760229489.429,-18.555,-27.832,-31.738,-18.066,0.000
1760229489.433,-20.996,-28.809,-28.320,-20.996,0.000
1760229489.436,-30.762,-30.762,-24.414,-21.973,0.000
1760229489.440,-30.762,-36.621,-23.438,-18.066,0.000
1760229489.444,-35.645,-31.738,-26.367,-24.414,0.000
1760229489.448,-30.762,-28.809,-25.391,-24.902,0.000
1760229489.452,-22.949,-37.598,-26.855,-16.602,0.000
1760229489.456,-24.414,-40.527,-28.809,-21.973,0.000
1760229489.460,-23.926,-35.156,-27.344,-27.832,0.000
1760229489.464,-26.367,-33.691,-30.762,-38.086,0.000
1760229489.468,-37.109,-34.668,-32.715,-40.527,0.000
1760229489.472,-35.156,-35.156,-26.367,-29.785,0.000
1760229489.475,-29.297,-32.715,-23.438,-28.320,0.000
1760229489.479,-23.438,-26.855,-27.832,-24.902,0.000
1760229489.483,-19.043,-27.344,-29.297,-20.020,0.000
1760229489.487,-27.344,-28.809,-28.809,-21.973,0.000
1760229489.491,-29.785,-24.902,-30.762,-18.066,0.000
1760229489.495,-25.879,-24.902,-35.156,-10.742,0.000
1760229489.499,-25.391,-30.273,-33.203,-25.879,0.000
1760229489.503,-23.438,-27.344,-33.203,-32.227,0.000
1760229489.507,-31.250,-21.973,-32.227,-33.203,0.000
1760229489.511,-39.062,-23.926,-27.344,-35.156,0.000
1760229489.515,-34.180,-30.273,-28.320,-23.926,0.000
1760229489.518,-27.832,-29.297,-32.227,-19.531,0.000
1760229489.522,-23.926,-27.832,-27.344,-17.578,0.000
1760229489.526,-24.902,-24.902,-25.879,-20.996,0.000
1760229489.530,-29.785,-20.508,-31.738,-35.645,0.000
1760229489.534,-31.250,-21.484,-34.180,-28.809,0.000
1760229489.538,-29.297,-22.949,-34.668,-19.043,0.000
1760229489.542,-39.062,-31.738,-34.180,-35.645,0.000
1760229489.546,-41.992,-36.621,-32.227,-38.574,0.000
1760229489.550,-41.504,-29.297,-26.855,-26.367,0.000
1760229489.554,-33.691,-26.855,-21.973,-15.137,0.000
1760229489.558,-33.203,-33.203,-23.438,-32.227,0.000
1760229489.561,-42.969,-30.273,-26.855,-38.574,0.000
1760229489.565,-42.969,-26.367,-25.391,-36.133,0.000
1760229489.569,-32.227,-30.762,-26.367,-39.062,0.000
1760229489.573,-27.344,-33.691,-27.832,-26.855,0.000
1760229489.577,-44.434,-31.250,-23.438,-33.691,0.000
1760229489.581,-52.246,-33.203,-26.367,-39.062,0.000
1760229489.585,-41.016,-29.785,-31.250,-24.414,0.000
1760229489.589,-36.133,-28.809,-26.855,-26.855,0.000
1760229489.593,-39.551,-36.621,-27.832,-29.297,0.000
1760229489.597,-41.016,-35.156,-28.809,-27.832,0.000
1760229489.600,-29.785,-26.367,-27.832,-27.344,0.000
1760229489.604,-26.367,-24.902,-27.344,-23.926,0.000
1760229489.608,-31.738,-25.879,-23.438,-31.738,0.000
1760229489.612,-36.621,-24.902,-19.531,-33.203,0.000
1760229489.616,-35.645,-22.461,-23.438,-25.391,0.000
1760229489.620,-22.949,-20.508,-31.250,-26.855,0.000
1760229489.624,-22.461,-26.367,-29.785,-25.391,0.000
1760229489.628,-30.273,-29.785,-26.855,-18.066,0.000
1760229489.632,-35.156,-32.227,-29.785,-25.391,0.000
1760229489.636,-27.344,-31.250,-30.273,-24.414,0.000
1760229489.640,-26.367,-27.344,-28.320,-18.066,0.000
1760229489.643,-38.574,-29.297,-27.832,-30.762,0.000
1760229489.647,-28.320,-28.320,-25.879,-34.180,0.000
1760229489.651,-20.508,-23.438,-22.461,-20.508,0.000
1760229489.655,-28.320,-23.438,-24.902,-22.461,0.000
1760229489.659,-24.902,-28.320,-25.879,-29.297,0.000
1760229489.663,-23.438,-31.250,-25.879,-23.926,0.000
1760229489.667,-24.414,-32.227,-26.855,-15.625,0.000
1760229489.671,-22.461,-29.297,-22.461,-5.371,0.000
1760229489.675,-32.227,-28.320,-24.902,-20.996,0.000
1760229489.679,-34.180,-30.762,-27.344,-38.086,0.000
1760229489.682,-22.461,-28.809,-21.973,-31.738,0.000
1760229489.686,-13.184,-24.902,-18.555,-22.461,0.000
1760229489.690,-22.949,-22.949,-22.949,-24.414,0.000
1760229489.694,-31.250,-24.414,-22.949,-29.297,0.000
1760229489.698,-21.973,-25.879,-24.902,-26.855,0.000
1760229489.702,-17.578,-29.297,-27.344,-19.043,0.000
1760229489.706,-25.391,-31.738,-25.391,-21.484,0.000
1760229489.710,-27.832,-31.738,-28.809,-31.250,0.000
1760229489.714,-25.879,-31.738,-30.762,-28.809,0.000
1760229489.718,-23.438,-29.785,-27.344,-29.297,0.000
1760229489.722,-22.461,-29.297,-25.391,-38.574,0.000
1760229489.725,-22.461,-32.227,-25.391,-36.133,0.000
1760229489.729,-22.949,-31.250,-22.461,-26.367,0.000
1760229489.733,-20.996,-32.715,-25.391,-24.414,0.000
1760229489.737,-18.555,-31.738,-27.832,-25.879,0.000
1760229489.741,-24.902,-29.785,-28.809,-32.227,0.000
1760229489.745,-24.414,-29.785,-31.250,-30.762,0.000
1760229489.749,-16.602,-25.879,-34.668,-22.949,0.000
1760229489.753,-18.066,-23.926,-33.203,-19.043,0.000
1760229489.757,-27.832,-24.902,-26.367,-23.926,0.000
1760229489.761,-29.297,-23.438,-25.879,-18.555,0.000
1760229489.764,-27.344,-20.508,-24.902,-9.277,0.000
1760229489.768,-31.738,-25.391,-22.949,-16.113,0.000
1760229489.772,-23.438,-26.855,-26.367,-24.902,0.000
1760229489.776,-25.391,-25.879,-32.715,-30.762,0.000
1760229489.780,-35.156,-30.273,-34.668,-33.691,0.000
1760229489.784,-25.391,-32.715,-35.156,-33.203,0.000
1760229489.788,-23.438,-33.203,-37.109,-24.414,0.000
1760229489.792,-28.320,-30.273,-37.598,-22.461,0.000
1760229489.796,-28.320,-25.879,-35.156,-28.320,0.000
1760229489.800,-25.391,-25.391,-32.715,-30.273,0.000
1760229489.804,-25.879,-25.391,-31.250,-17.090,0.000
1760229489.807,-29.297,-23.438,-29.785,-16.602,0.000
1760229489.811,-24.902,-26.367,-28.320,-29.785,0.000
1760229489.815,-19.043,-26.367,-28.809,-22.461,0.000
1760229489.819,-17.090,-26.855,-27.344,-9.277,0.000
1760229489.823,-20.020,-28.809,-29.297,-16.113,0.000
1760229489.827,-29.297,-29.297,-35.645,-34.180,0.000
1760229489.831,-36.621,-33.691,-33.203,-41.016,0.000
1760229489.835,-33.691,-32.715,-28.809,-28.320,0.000
1760229489.839,-32.715,-28.809,-24.902,-19.043,0.000
1760229489.843,-38.574,-31.738,-27.832,-31.738,0.000
1760229489.846,-37.109,-37.109,-34.668,-33.691,0.000
1760229489.850,-30.762,-30.762,-32.227,-23.926,0.000
1760229489.854,-29.785,-24.902,-33.203,-19.043,0.000
1760229489.858,-31.738,-24.902,-33.691,-24.414,0.000
1760229489.862,-36.133,-24.902,-31.250,-30.762,0.000
1760229489.866,-33.203,-31.250,-31.738,-27.344,0.000
1760229489.870,-28.320,-32.715,-32.227,-20.996,0.000
1760229489.874,-27.344,-29.785,-32.715,-22.949,0.000
1760229489.878,-28.320,-32.715,-31.250,-26.855,0.000
1760229489.882,-28.320,-35.156,-35.156,-29.785,0.000
1760229489.886,-19.531,-28.809,-38.086,-29.297,0.000
1760229489.889,-21.484,-25.879,-32.227,-27.832,0.000
1760229489.893,-32.715,-29.785,-29.297,-25.391,0.000
1760229489.897,-32.715,-29.785,-34.668,-26.855,0.000
1760229489.901,-32.715,-28.809,-33.203,-21.973,0.000
1760229489.905,-35.156,-29.297,-28.809,-27.344,0.000
1760229489.909,-36.133,-35.156,-30.762,-30.762,0.000
1760229489.913,-32.715,-35.156,-38.574,-33.203,0.000
1760229489.917,-31.738,-31.250,-40.527,-43.945,0.000
1760229489.921,-32.227,-35.645,-31.250,-34.180,0.000
1760229489.925,-38.086,-36.133,-28.809,-26.855,0.000
1760229489.929,-45.410,-35.156,-28.320,-31.738,0.000
1760229489.932,-42.480,-40.039,-30.762,-31.738,0.000
1760229489.936,-35.645,-42.480,-33.691,-26.367,0.000
1760229489.940,-33.691,-39.062,-36.621,-35.645,0.000
1760229489.944,-35.645,-38.574,-40.527,-29.297,0.000
1760229489.948,-38.086,-38.086,-40.039,-17.578,0.000
1760229489.952,-34.180,-34.180,-32.715,-18.066,0.000
1760229489.956,-32.227,-38.574,-30.273,-17.090,0.000
1760229489.960,-37.109,-37.598,-29.297,-20.996,0.000
1760229489.964,-35.645,-37.598,-20.996,-27.832,0.000
1760229489.968,-40.527,-36.621,-24.414,-28.809,0.000
1760229489.971,-41.016,-28.320,-30.273,-28.809,0.000
1760229489.975,-34.180,-31.250,-21.484,-35.156,0.000
1760229489.979,-35.156,-35.156,-15.137,-36.621,0.000
1760229489.983,-36.621,-31.738,-15.625,-28.809,0.000
1760229489.987,-36.621,-32.715,-22.949,-24.414,0.000
1760229489.991,-35.645,-30.273,-28.809,-35.645,0.000
1760229489.995,-32.715,-28.320,-21.484,-39.551,0.000
1760229489.999,-31.250,-31.250,-24.414,-27.832,0.000
1760229490.003,-21.973,-30.762,-29.297,-20.020,0.000
1760229490.007,-22.461,-30.762,-30.762,-40.527,0.000
1760229490.011,-30.762,-32.715,-33.203,-53.223,0.000
1760229490.014,-27.832,-32.227,-28.320,-40.039,0.000
1760229490.018,-28.320,-30.762,-24.902,-25.879,0.000
1760229490.022,-30.273,-27.344,-23.438,-26.367,0.000
1760229490.026,-29.785,-28.809,-22.461,-28.809,0.000
1760229490.030,-32.227,-25.391,-20.996,-27.344,0.000
1760229490.034,-27.344,-16.113,-17.578,-19.043,0.000
1760229490.038,-28.320,-17.090,-22.461,-17.090,0.000
1760229490.042,-37.109,-24.902,-26.367,-29.297,0.000
1760229490.046,-42.480,-34.180,-26.367,-32.715,0.000
1760229490.050,-45.898,-32.227,-25.879,-35.156,0.000
1760229490.053,-41.504,-29.785,-30.273,-29.297,0.000
1760229490.057,-40.039,-31.250,-32.715,-34.668,0.000
1760229490.061,-42.480,-26.855,-27.344,-50.293,0.000
1760229490.065,-38.574,-25.879,-24.902,-39.551,0.000
1760229490.069,-32.227,-27.344,-21.484,-28.320,0.000
1760229490.073,-28.320,-28.320,-19.043,-28.809,0.000
1760229490.077,-30.762,-25.391,-16.113,-32.715,0.000
1760229490.081,-34.668,-28.320,-19.043,-30.273,0.000
1760229490.085,-29.785,-33.203,-20.996,-30.273,0.000
1760229490.089,-30.762,-33.691,-22.461,-28.809,0.000
1760229490.093,-39.551,-34.180,-26.367,-28.320,0.000
1760229490.096,-38.574,-31.250,-24.414,-41.504,0.000
1760229490.100,-33.203,-33.691,-23.438,-29.785,0.000
1760229490.104,-29.297,-36.621,-29.297,-22.949,0.000
1760229490.108,-29.785,-34.180,-26.367,-27.344,0.000
1760229490.112,-27.832,-33.691,-21.973,-24.414,0.000
1760229490.116,-22.949,-32.227,-21.484,-22.949,0.000
1760229490.120,-19.043,-29.785,-21.484,-18.555,0.000
1760229490.124,-19.043,-28.320,-24.414,-24.414,0.000
1760229490.128,-23.438,-31.250,-29.785,-36.621,0.000
1760229490.132,-23.438,-27.832,-29.785,-40.527,0.000
1760229490.135,-20.020,-20.996,-21.484,-26.367,0.000
1760229490.139,-24.902,-25.879,-23.438,-36.621,0.000
1760229490.143,-29.297,-29.297,-34.180,-50.293,0.000
1760229490.147,-28.809,-27.832,-28.809,-36.621,0.000
1760229490.151,-21.484,-22.461,-22.461,-23.926,0.000
1760229490.155,-18.066,-20.020,-21.973,-16.602,0.000
1760229490.159,-28.809,-23.926,-23.438,-26.367,0.000
1760229490.163,-33.691,-28.320,-25.879,-41.992,0.000
1760229490.167,-28.320,-29.297,-25.879,-37.598,0.000
1760229490.171,-33.203,-30.273,-28.809,-32.715,0.000
1760229490.175,-32.715,-32.715,-28.320,-35.645,0.000
1760229490.178,-21.484,-37.598,-27.832,-31.738,0.000
1760229490.182,-29.297,-36.621,-36.621,-25.391,0.000
1760229490.186,-32.715,-27.344,-38.086,-27.344,0.000
1760229490.190,-33.203,-26.855,-37.109,-38.086,0.000
1760229490.194,-38.086,-29.297,-38.086,-35.645,0.000
1760229490.198,-35.645,-30.273,-29.785,-26.855,0.000
1760229490.202,-35.645,-27.344,-26.855,-25.391,0.000
1760229490.206,-31.250,-22.461,-32.227,-27.832,0.000
1760229490.210,-25.879,-19.531,-31.738,-30.273,0.000
1760229490.214,-32.227,-19.043,-27.832,-31.738,0.000
1760229490.218,-35.156,-23.438,-26.367,-23.438,0.000
1760229490.221,-15.625,-25.879,-24.414,-8.301,0.000
1760229490.225,-10.254,-27.832,-25.391,-13.184,0.000
1760229490.229,-30.273,-33.691,-29.297,-22.949,0.000
1760229490.233,-26.855,-34.180,-28.320,-23.438,0.000
1760229490.237,-21.484,-33.203,-24.902,-12.207,0.000
1760229490.241,-30.273,-36.621,-27.832,-12.207,0.000
1760229490.245,-32.227,-36.133,-26.855,-21.973,0.000
1760229490.249,-23.438,-33.203,-22.949,-17.578,0.000
1760229490.253,-21.484,-30.762,-25.391,-12.695,0.000
1760229490.257,-26.855,-27.344,-28.320,-22.949,0.000
1760229490.260,-33.691,-25.391,-28.320,-29.297,0.000
1760229490.264,-29.785,-28.320,-26.855,-20.996,0.000
1760229490.268,-14.648,-27.832,-23.438,-10.254,0.000
1760229490.272,-11.719,-23.438,-22.461,-10.254,0.000
1760229490.276,-16.602,-21.973,-24.902,-20.508,0.000
1760229490.280,-13.672,-21.973,-25.879,-21.973,0.000
1760229490.284,-11.719,-23.926,-28.809,-14.160,0.000
1760229490.288,-18.555,-29.297,-31.250,-21.484,0.000
1760229490.292,-26.855,-28.320,-30.762,-28.809,0.000
1760229490.296,-39.551,-32.227,-31.738,-36.133,0.000
1760229490.300,-28.809,-36.621,-32.227,-36.133,0.000
1760229490.303,-22.949,-36.133,-33.691,-25.879,0.000
1760229490.307,-42.480,-38.574,-29.297,-26.367,0.000
1760229490.311,-39.551,-38.574,-27.832,-20.508,0.000
1760229490.315,-34.668,-40.039,-28.809,-14.160,0.000
1760229490.319,-33.691,-41.992,-25.879,-14.648,0.000
1760229490.323,-33.203,-40.039,-24.414,-23.438,0.000
1760229490.327,-33.691,-39.062,-22.949,-34.668,0.000
1760229490.331,-25.879,-36.133,-20.996,-15.137,0.000
1760229490.335,-18.066,-30.762,-30.762,-13.672,0.000
1760229490.339,-20.508,-28.320,-34.180,-39.551,0.000
1760229490.342,-27.832,-30.762,-31.738,-38.086,0.000
1760229490.346,-31.250,-35.156,-32.715,-36.133,0.000
1760229490.350,-28.320,-32.227,-26.367,-32.227,0.000
1760229490.354,-27.344,-31.250,-20.508,-25.879,0.000
1760229490.358,-23.438,-32.715,-22.461,-24.414,0.000
1760229490.362,-25.879,-34.668,-20.508,-15.137,0.000
1760229490.366,-29.785,-35.645,-21.484,-12.695,0.000
1760229490.370,-33.203,-35.156,-28.320,-28.320,0.000
1760229490.374,-43.457,-34.668,-29.297,-36.133,0.000
1760229490.378,-46.387,-33.691,-28.809,-20.508,0.000
1760229490.382,-46.387,-32.715,-28.809,-19.043,0.000
1760229490.385,-47.363,-35.156,-27.832,-29.297,0.000
1760229490.389,-43.457,-34.668,-27.344,-35.156,0.000
1760229490.393,-39.062,-29.297,-26.367,-41.504,0.000
1760229490.397,-40.039,-28.809,-23.438,-36.621,0.000
1760229490.401,-35.156,-29.785,-24.414,-30.273,0.000
1760229490.405,-30.762,-27.832,-25.391,-36.133,0.000
1760229490.409,-36.621,-26.855,-27.344,-38.574,0.000
1760229490.413,-39.062,-26.367,-34.180,-34.180,0.000
1760229490.417,-35.645,-28.809,-30.762,-31.250,0.000
1760229490.421,-35.645,-33.203,-28.809,-23.926,0.000
1760229490.424,-41.992,-29.785,-28.809,-34.180,0.000
1760229490.428,-42.480,-22.461,-27.344,-42.969,0.000
1760229490.432,-37.598,-25.879,-29.785,-40.527,0.000
1760229490.436,-33.203,-27.832,-33.203,-43.457,0.000
1760229490.440,-29.297,-23.926,-31.250,-38.086,0.000
1760229490.444,-34.180,-25.879,-25.879,-37.598,0.000
1760229490.448,-37.109,-30.273,-30.762,-33.203,0.000
1760229490.452,-23.438,-28.320,-35.156,-24.902,0.000
1760229490.456,-19.531,-27.832,-29.297,-25.391,0.000
1760229490.460,-31.250,-31.250,-26.367,-33.691,0.000
1760229490.464,-37.109,-34.180,-25.879,-34.668,0.000
1760229490.467,-32.227,-32.715,-25.391,-28.809,0.000
1760229490.471,-25.879,-28.320,-30.762,-32.227,0.000
1760229490.475,-29.785,-29.785,-31.738,-36.621,0.000
1760229490.479,-29.785,-25.879,-33.203,-36.621,0.000
1760229490.483,-27.832,-18.066,-36.621,-34.180,0.000
1760229490.487,-30.762,-18.555,-28.809,-27.832,0.000
1760229490.491,-33.203,-22.949,-25.391,-31.738,0.000
1760229490.495,-26.367,-22.461,-31.250,-37.109,0.000
1760229490.499,-22.949,-21.484,-28.809,-28.809,0.000
1760229490.503,-25.391,-23.438,-26.367,-18.555,0.000
1760229490.507,-28.320,-27.832,-30.762,-21.484,0.000
1760229490.510,-35.156,-26.855,-25.879,-24.902,0.000
1760229490.514,-33.691,-20.996,-25.879,-21.484,0.000
1760229490.518,-34.668,-21.484,-27.832,-22.461,0.000
1760229490.522,-29.297,-20.020,-19.043,-17.090,0.000
1760229490.526,-25.879,-15.625,-20.020,-20.508,0.000
1760229490.530,-31.250,-19.531,-28.320,-23.438,0.000
1760229490.534,-27.344,-22.461,-28.320,-14.648,0.000
1760229490.538,-18.555,-22.949,-21.973,-8.789,0.000
1760229490.542,-23.438,-26.855,-23.926,-18.555,0.000
1760229490.546,-25.879,-23.926,-27.832,-31.250,0.000
1760229490.549,-22.949,-23.438,-27.344,-32.227,0.000
1760229490.553,-16.602,-20.996,-25.391,-23.926,0.000
1760229490.557,-18.555,-17.578,-22.461,-24.414,0.000
1760229490.561,-30.762,-27.344,-18.555,-37.598,0.000
1760229490.565,-30.273,-28.809,-19.531,-35.156,0.000
1760229490.569,-20.996,-17.578,-24.902,-19.043,0.000
1760229490.573,-24.902,-16.602,-22.949,-23.926,0.000
1760229490.577,-31.250,-21.484,-25.391,-40.039,0.000
1760229490.581,-33.203,-21.484,-33.203,-36.133,0.000
1760229490.585,-37.109,-22.461,-32.715,-36.133,0.000
1760229490.589,-24.414,-22.461,-34.180,-40.527,0.000
1760229490.592,-29.297,-26.855,-34.668,-44.434,0.000
1760229490.596,-41.992,-25.879,-34.668,-43.457,0.000
1760229490.600,-37.109,-20.996,-36.621,-37.109,0.000
1760229490.604,-27.832,-26.855,-35.156,-38.574,0.000
1760229490.608,-18.066,-27.344,-31.738,-35.645,0.000
1760229490.612,-26.855,-27.344,-32.715,-33.691,0.000
1760229490.616,-34.668,-31.738,-36.133,-29.785,0.000
1760229490.620,-31.738,-27.832,-36.133,-32.715,0.000
1760229490.624,-28.809,-21.484,-32.715,-42.480,0.000
1760229490.628,-29.785,-18.066,-32.715,-50.293,0.000
1760229490.632,-29.297,-19.043,-33.691,-50.781,0.000
1760229490.635,-29.297,-22.949,-31.250,-40.039,0.000
1760229490.639,-30.273,-25.879,-31.250,-39.062,0.000
1760229490.643,-34.180,-27.832,-32.227,-38.086,0.000
1760229490.647,-35.645,-28.809,-31.250,-36.133,0.000
1760229490.651,-39.551,-30.762,-30.273,-34.668,0.000
1760229490.655,-36.133,-30.273,-30.273,-26.855,0.000
1760229490.659,-32.227,-27.344,-27.344,-33.691,0.000
1760229490.663,-36.621,-25.879,-30.273,-35.645,0.000
1760229490.667,-36.621,-27.832,-34.668,-36.621,0.000
1760229490.671,-38.574,-31.738,-31.738,-39.062,0.000
1760229490.674,-36.621,-25.391,-28.809,-35.645,0.000
1760229490.678,-28.809,-22.461,-25.391,-32.227,0.000
1760229490.682,-23.438,-28.320,-25.391,-38.086,0.000
1760229490.686,-15.137,-29.297,-21.973,-28.320,0.000
1760229490.690,-29.785,-33.203,-20.020,-21.484,0.000
1760229490.694,-48.340,-34.180,-22.461,-29.785,0.000
1760229490.698,-37.598,-28.320,-23.438,-34.180,0.000
1760229490.702,-35.156,-24.414,-25.391,-35.156,0.000
1760229490.706,-39.062,-22.461,-25.879,-29.297,0.000
1760229490.710,-42.480,-29.785,-26.367,-33.691,0.000
1760229490.713,-45.898,-32.227,-25.391,-36.133,0.000
1760229490.717,-36.133,-25.391,-24.902,-33.203,0.000
1760229490.721,-29.785,-31.250,-21.973,-34.180,0.000
1760229490.725,-29.785,-37.109,-20.020,-28.320,0.000
1760229490.729,-30.762,-34.668,-19.531,-16.113,0.000
1760229490.733,-31.738,-26.367,-17.090,-10.742,0.000
1760229490.737,-26.367,-26.855,-17.578,-16.602,0.000
1760229490.741,-26.367,-33.691,-18.555,-25.879,0.000
1760229490.745,-32.227,-32.715,-22.461,-26.855,0.000
1760229490.749,-32.715,-32.227,-27.832,-24.414,0.000
1760229490.753,-21.973,-26.855,-22.461,-19.531,0.000
1760229490.756,-22.949,-26.855,-23.926,-23.438,0.000
1760229490.760,-22.949,-31.738,-30.762,-27.344,0.000
1760229490.764,-20.508,-26.367,-24.414,-26.855,0.000
1760229490.768,-19.531,-28.320,-20.508,-19.043,0.000
1760229490.772,-8.789,-24.902,-21.973,-10.254,0.000
1760229490.776,-18.066,-20.996,-21.484,-21.973,0.000
1760229490.780,-33.203,-28.809,-21.973,-24.414,0.000
1760229490.784,-34.180,-33.691,-22.461,-19.043,0.000
1760229490.788,-30.273,-37.109,-22.461,-19.043,0.000
1760229490.792,-37.109,-33.691,-22.949,-20.996,0.000
1760229490.796,-36.621,-30.273,-26.367,-16.602,0.000
1760229490.799,-32.227,-28.809,-27.344,-13.672,0.000
1760229490.803,-28.809,-21.484,-27.344,-13.672,0.000
1760229490.807,-20.020,-24.414,-25.879,-6.348,0.000
1760229490.811,-23.438,-31.250,-18.555,-14.160,0.000
1760229490.815,-28.320,-32.227,-20.508,-13.672,0.000
1760229490.819,-26.855,-35.645,-26.367,-13.184,0.000
1760229490.823,-31.250,-41.016,-27.832,-26.855,0.000
1760229490.827,-35.156,-36.621,-26.367,-22.461,0.000
1760229490.831,-32.227,-26.855,-22.461,-19.531,0.000
1760229490.835,-24.414,-24.414,-21.484,-12.207,0.000
1760229490.838,-22.461,-23.926,-29.785,-12.695,0.000
1760229490.842,-28.809,-25.391,-36.133,-24.902,0.000
1760229490.846,-27.344,-23.438,-32.715,-26.855,0.000
1760229490.850,-28.809,-26.367,-33.203,-26.855,0.000
1760229490.854,-28.320,-29.785,-32.715,-22.949,0.000
1760229490.858,-24.902,-28.320,-25.391,-22.949,0.000
1760229490.862,-25.391,-27.344,-24.902,-33.203,0.000
1760229490.866,-26.855,-23.438,-29.297,-33.691,0.000
1760229490.870,-24.414,-22.461,-29.785,-28.809,0.000
1760229490.874,-25.391,-26.855,-29.785,-21.973,0.000
1760229490.878,-30.273,-27.832,-25.879,-22.461,0.000
1760229490.881,-29.297,-27.344,-24.902,-28.809,0.000
1760229490.885,-17.090,-24.902,-23.926,-15.137,0.000
1760229490.889,-19.531,-22.461,-24.902,-17.090,0.000
1760229490.893,-27.832,-26.367,-27.344,-33.203,0.000
1760229490.897,-20.508,-28.320,-30.762,-34.180,0.000
1760229490.901,-25.879,-30.273,-32.715,-29.785,0.000
1760229490.905,-38.086,-32.227,-29.785,-25.391,0.000
1760229490.909,-35.645,-29.785,-33.203,-37.598,0.000
1760229490.913,-28.809,-30.762,-29.785,-36.133,0.000
1760229490.917,-27.344,-29.785,-21.973,-23.438,0.000
1760229490.920,-25.879,-23.926,-23.438,-18.555,0.000
1760229490.924,-29.297,-27.344,-21.484,-20.508,0.000
1760229490.928,-31.738,-28.320,-23.438,-27.832,0.000
1760229490.932,-24.902,-26.367,-24.902,-29.297,0.000
1760229490.936,-30.762,-32.715,-24.414,-33.691,0.000
1760229490.940,-49.805,-38.086,-25.391,-37.598,0.000
1760229490.944,-47.852,-37.598,-25.391,-32.227,0.000
1760229490.948,-27.832,-29.785,-25.391,-28.320,0.000
1760229490.952,-36.133,-25.391,-27.344,-35.645,0.000
1760229490.956,-43.945,-28.320,-23.926,-38.086,0.000
1760229490.960,-42.480,-26.855,-25.391,-37.598,0.000
1760229490.963,-44.434,-21.973,-28.809,-36.133,0.000
1760229490.967,-37.598,-19.531,-27.832,-37.109,0.000
1760229490.971,-35.156,-20.996,-31.738,-32.227,0.000
1760229490.975,-41.016,-29.785,-30.762,-31.250,0.000
1760229490.979,-41.992,-28.320,-22.461,-35.156,0.000
1760229490.983,-41.016,-24.902,-21.484,-35.645,0.000
1760229490.987,-34.180,-25.879,-26.367,-31.250,0.000
1760229490.991,-38.086,-28.809,-27.832,-24.902,0.000
1760229490.995,-48.340,-32.227,-29.785,-26.367,0.000
1760229490.999,-43.457,-30.273,-33.203,-32.715,0.000
1760229491.003,-37.109,-28.320,-29.785,-31.738,0.000
1760229491.006,-36.621,-28.809,-23.926,-39.062,0.000
1760229491.010,-33.691,-28.320,-21.973,-34.668,0.000
1760229491.014,-33.691,-32.227,-21.484,-23.926,0.000
1760229491.018,-32.715,-33.691,-20.508,-20.996,0.000
1760229491.022,-26.855,-34.668,-19.531,-25.391,0.000
1760229491.026,-28.320,-30.762,-17.090,-33.203,0.000
1760229491.030,-35.156,-27.344,-18.066,-35.156,0.000
1760229491.034,-27.344,-27.344,-21.973,-27.832,0.000
1760229491.038,-17.578,-24.414,-21.484,-19.043,0.000
1760229491.042,-22.461,-24.414,-17.090,-24.902,0.000
1760229491.045,-32.227,-25.879,-17.578,-33.691,0.000
1760229491.049,-38.574,-30.273,-21.484,-37.109,0.000
1760229491.053,-37.598,-32.715,-23.438,-32.715,0.000
1760229491.057,-32.227,-27.344,-23.926,-32.715,0.000
1760229491.061,-30.273,-29.785,-25.391,-36.133,0.000
1760229491.065,-30.762,-35.156,-21.484,-27.344,0.000
1760229491.069,-32.715,-34.180,-17.090,-20.508,0.000
1760229491.073,-36.621,-35.645,-21.484,-24.902,0.000
1760229491.077,-34.180,-39.062,-23.926,-29.297,0.000
1760229491.081,-28.809,-38.574,-20.996,-24.414,0.000
1760229491.085,-27.832,-35.156,-20.996,-20.020,0.000
1760229491.088,-29.785,-33.203,-15.137,-18.555,0.000
1760229491.092,-34.668,-35.156,-12.695,-22.461,0.000
1760229491.096,-29.297,-34.668,-21.973,-25.391,0.000
1760229491.100,-26.367,-31.250,-27.832,-24.902,0.000
1760229491.104,-26.367,-28.320,-26.855,-23.926,0.000
1760229491.108,-23.438,-29.785,-23.926,-23.926,0.000
1760229491.112,-20.020,-32.227,-26.855,-29.785,0.000
1760229491.116,-22.461,-31.250,-28.809,-31.250,0.000
1760229491.120,-15.625,-29.297,-25.879,-23.926,0.000
1760229491.124,-14.160,-23.926,-31.250,-25.391,0.000
1760229491.127,-24.902,-21.973,-34.668,-30.762,0.000
1760229491.131,-31.250,-27.832,-32.227,-36.621,0.000
1760229491.135,-26.367,-24.902,-29.297,-31.738,0.000
1760229491.139,-27.832,-25.391,-27.832,-27.832,0.000
1760229491.143,-33.203,-32.715,-29.785,-30.273,0.000
1760229491.147,-37.598,-32.227,-26.367,-30.762,0.000
1760229491.151,-35.645,-31.250,-19.043,-28.320,0.000
1760229491.155,-28.320,-30.273,-19.531,-26.855,0.000
1760229491.159,-27.344,-27.344,-21.973,-30.273,0.000
1760229491.163,-29.785,-27.832,-22.949,-36.621,0.000
1760229491.167,-20.996,-23.926,-26.367,-34.668,0.000
1760229491.170,-17.578,-20.996,-29.785,-17.578,0.000
1760229491.174,-25.879,-26.855,-26.367,-21.484,0.000
1760229491.178,-20.996,-23.926,-22.461,-24.902,0.000
1760229491.182,-14.648,-18.555,-23.438,-15.137,0.000
1760229491.186,-19.043,-18.555,-23.926,-15.137,0.000
1760229491.190,-28.809,-16.602,-27.344,-25.391,0.000
1760229491.194,-27.344,-19.043,-28.320,-24.902,0.000
1760229491.198,-30.762,-21.973,-27.344,-18.066,0.000
1760229491.202,-24.414,-18.066,-29.297,-16.113,0.000
1760229491.206,-16.602,-16.602,-26.855,-17.578,0.000
1760229491.209,-25.879,-19.531,-25.879,-25.391,0.000
1760229491.213,-24.414,-22.461,-25.391,-21.484,0.000
1760229491.217,-18.555,-23.926,-27.832,-19.531,0.000
1760229491.221,-20.996,-24.902,-27.832,-26.855,0.000
1760229491.225,-28.809,-29.297,-29.297,-33.203,0.000
1760229491.229,-31.738,-32.227,-32.715,-33.691,0.000
1760229491.233,-25.879,-31.738,-27.832,-26.367,0.000
1760229491.237,-24.414,-26.367,-19.531,-27.344,0.000
1760229491.241,-27.832,-24.414,-16.602,-34.180,0.000
1760229491.245,-28.320,-28.809,-21.484,-34.180,0.000
1760229491.249,-29.785,-33.691,-22.461,-35.156,0.000
1760229491.252,-28.809,-26.367,-24.414,-35.156,0.000
1760229491.256,-21.484,-19.043,-30.762,-35.645,0.000
1760229491.260,-32.715,-36.133,-35.156,-46.875,0.000
1760229491.264,-45.898,-38.086,-36.621,-47.852,0.000
1760229491.268,-25.879,-26.367,-31.250,-37.598,0.000
1760229491.272,-25.391,-31.738,-28.809,-40.527,0.000
1760229491.276,-49.316,-25.879,-14.648,-41.504,0.000
1760229491.280,-54.199,-16.113,-18.066,-40.527,0.000
1760229491.284,-54.199,-21.484,-19.043,-51.270,0.000
1760229491.288,-49.316,-3.418,7.812,-46.387,0.000
1760229491.292,-64.453,-1.465,13.672,-66.895,0.000
1760229491.295,-104.492,-21.484,-1.465,-103.516,0.000
1760229491.299,-101.562,-0.488,19.531,-91.797,0.000
1760229491.303,-103.516,9.277,34.180,-95.215,0.000
1760229491.307,-143.066,9.277,17.578,-140.625,0.000
1760229491.311,-167.480,23.926,27.344,-166.992,0.000
1760229491.315,-181.641,34.668,45.898,-180.664,0.000
1760229491.319,-201.172,47.363,64.453,-197.266,0.000
1760229491.323,-229.004,44.922,75.684,-217.773,0.000
1760229491.327,-258.789,41.992,71.777,-247.070,0.000
1760229491.331,-272.461,52.246,77.637,-269.043,0.000
1760229491.334,-266.602,67.871,77.148,-268.555,0.000
1760229491.338,-271.973,65.918,74.707,-275.391,0.000
1760229491.342,-281.738,59.570,87.891,-278.320,0.000
1760229491.346,-271.484,66.895,90.820,-272.461,0.000
1760229491.350,-261.719,76.660,75.195,-265.625,0.000
1760229491.354,-246.582,71.289,72.754,-249.023,0.000
1760229491.358,-233.887,64.453,78.125,-234.863,0.000
1760229491.362,-229.004,59.082,76.172,-231.934,0.000
1760229491.366,-213.867,49.316,67.871,-215.820,0.000
1760229491.370,-196.777,46.875,63.965,-187.500,0.000
1760229491.374,-174.805,49.805,62.012,-174.805,0.000
1760229491.377,-156.738,45.898,47.852,-163.086,0.000
1760229491.381,-142.578,38.574,32.227,-149.902,0.000
1760229491.385,-119.629,31.738,25.879,-121.094,0.000
1760229491.389,-103.516,20.508,19.043,-106.445,0.000
1760229491.393,-95.215,5.859,7.812,-105.957,0.000
1760229491.397,-80.566,-8.301,0.488,-79.102,0.000
1760229491.401,-56.152,-12.695,-8.301,-48.828,0.000
1760229491.405,-33.203,-15.625,-16.602,-26.367,0.000
1760229491.409,-21.484,-24.902,-23.926,-15.625,0.000
1760229491.413,-6.348,-30.762,-30.762,-10.254,0.000
1760229491.416,0.000,-35.156,-40.039,3.906,0.000
1760229491.420,8.301,-44.434,-51.758,16.602,0.000
1760229491.424,26.367,-51.270,-47.852,24.414,0.000
1760229491.428,27.832,-53.711,-52.246,21.973,0.000
1760229491.432,29.785,-56.152,-64.941,28.809,0.000
1760229491.436,45.410,-59.570,-64.453,46.387,0.000
1760229491.440,54.199,-60.547,-64.453,49.805,0.000
1760229491.444,57.617,-59.570,-62.012,50.293,0.000
1760229491.448,56.152,-64.453,-67.383,56.152,0.000
1760229491.452,60.059,-68.848,-76.660,61.523,0.000
1760229491.456,65.430,-71.289,-69.824,74.219,0.000
1760229491.459,56.152,-71.289,-66.406,76.660,0.000
1760229491.463,54.199,-67.871,-73.242,68.848,0.000
1760229491.467,60.059,-68.848,-80.566,70.801,0.000
1760229491.471,59.570,-69.824,-78.613,72.754,0.000
1760229491.475,58.594,-65.430,-73.242,65.918,0.000
1760229491.479,64.453,-66.406,-76.660,62.012,0.000
1760229491.483,58.105,-65.430,-76.660,63.477,0.000
1760229491.487,51.758,-62.012,-71.289,62.500,0.000
1760229491.491,61.523,-58.594,-64.941,60.059,0.000
1760229491.495,60.547,-52.734,-66.895,57.617,0.000
1760229491.499,55.176,-58.594,-68.848,64.941,0.000
1760229491.502,51.270,-62.500,-67.871,73.730,0.000
1760229491.506,47.363,-58.105,-64.941,64.941,0.000
1760229491.510,45.898,-57.617,-60.059,57.129,0.000
1760229491.514,42.480,-59.570,-59.082,55.176,0.000
1760229491.518,39.062,-60.059,-61.035,51.758,0.000
1760229491.522,41.016,-58.105,-62.012,49.316,0.000
1760229491.526,40.039,-60.059,-62.500,42.480,0.000
1760229491.530,46.875,-54.688,-63.477,38.574,0.000
1760229491.534,46.387,-52.246,-60.059,41.992,0.000
1760229491.538,39.551,-54.688,-55.176,44.434,0.000
1760229491.541,38.574,-56.152,-57.129,31.738,0.000
1760229491.545,32.715,-56.152,-55.176,35.645,0.000
1760229491.549,29.785,-49.805,-51.270,42.480,0.000
1760229491.553,30.762,-45.410,-53.711,40.527,0.000
1760229491.557,25.391,-54.688,-58.594,32.715,0.000
1760229491.561,18.066,-59.082,-58.105,18.555,0.000
1760229491.565,21.973,-52.246,-53.223,16.602,0.000
1760229491.569,18.555,-50.781,-51.270,17.090,0.000
1760229491.573,16.602,-47.363,-53.711,16.602,0.000
1760229491.577,11.230,-45.410,-56.641,11.230,0.000
1760229491.581,-5.371,-48.340,-57.129,1.465,0.000
1760229491.584,-10.254,-49.805,-53.711,-0.977,0.000
1760229491.588,-7.324,-48.340,-52.734,-0.488,0.000
1760229491.592,-10.742,-53.711,-49.805,-2.930,0.000
1760229491.596,-16.113,-52.734,-43.945,0.000,0.000
1760229491.600,-8.789,-46.875,-45.898,-1.953,0.000
1760229491.604,4.395,-51.758,-45.898,1.953,0.000
1760229491.608,7.324,-52.734,-38.574,-2.930,0.000
1760229491.612,-4.883,-50.293,-39.062,-9.766,0.000
1760229491.616,-14.160,-51.270,-44.434,-4.883,0.000
1760229491.620,-12.207,-51.758,-42.969,-3.906,0.000
1760229491.623,-8.301,-45.898,-39.551,-8.789,0.000
1760229491.627,-8.789,-41.504,-39.062,-8.789,0.000
1760229491.631,-14.648,-37.109,-34.668,-8.301,0.000
1760229491.635,-7.812,-36.621,-34.668,2.930,0.000
1760229491.639,-2.930,-38.086,-38.086,4.883,0.000
1760229491.643,-9.277,-35.645,-35.645,-0.977,0.000
1760229491.647,-7.812,-35.156,-31.738,0.000,0.000
1760229491.651,-4.395,-31.738,-31.250,-10.742,0.000
1760229491.655,4.395,-28.809,-34.668,-13.672,0.000
1760229491.659,-2.441,-33.203,-36.621,-15.625,0.000
1760229491.663,-8.789,-38.086,-36.621,-11.719,0.000
1760229491.666,-2.930,-40.527,-35.645,4.883,0.000
1760229491.670,-9.277,-40.527,-31.738,3.906,0.000
1760229491.674,-13.184,-39.551,-34.180,-13.184,0.000
1760229491.678,-18.066,-39.062,-34.180,-13.672,0.000
1760229491.682,-20.020,-33.203,-31.250,-8.301,0.000
1760229491.686,-19.043,-27.832,-33.691,-10.742,0.000
1760229491.690,-22.949,-31.250,-28.809,-19.531,0.000
1760229491.694,-24.414,-31.738,-24.902,-23.438,0.000
1760229491.698,-20.508,-32.227,-26.367,-19.043,0.000
1760229491.702,-18.066,-34.180,-28.809,-16.113,0.000
1760229491.706,-12.695,-31.738,-29.297,-18.066,0.000
1760229491.709,-13.672,-31.738,-31.250,-16.113,0.000
1760229491.713,-14.648,-34.180,-33.691,-14.160,0.000
1760229491.717,-8.789,-32.715,-31.250,-7.324,0.000
1760229491.721,-12.695,-31.250,-29.297,-7.324,0.000
1760229491.725,-18.066,-36.133,-33.203,-15.625,0.000
1760229491.729,-20.020,-38.574,-33.691,-22.461,0.000
1760229491.733,-20.020,-37.109,-29.297,-20.508,0.000
1760229491.737,-20.020,-36.133,-21.973,-17.090,0.000
1760229491.741,-27.344,-36.133,-20.020,-18.555,0.000
1760229491.745,-35.156,-38.574,-26.367,-21.484,0.000
1760229491.748,-35.156,-41.504,-26.855,-26.367,0.000
1760229491.752,-36.621,-46.875,-29.785,-28.809,0.000
1760229491.756,-35.645,-52.246,-34.180,-35.645,0.000
1760229491.760,-35.156,-44.434,-33.691,-39.551,0.000
1760229491.764,-33.691,-36.621,-33.203,-41.992,0.000
1760229491.768,-27.832,-41.504,-30.762,-36.133,0.000
1760229491.772,-36.621,-49.805,-26.367,-30.762,0.000
1760229491.776,-46.875,-50.293,-29.785,-29.297,0.000
1760229491.780,-42.969,-49.805,-39.062,-35.645,0.000
1760229491.784,-37.598,-46.875,-37.109,-37.109,0.000
1760229491.788,-32.715,-46.875,-26.855,-25.879,0.000
1760229491.791,-26.855,-41.992,-25.391,-27.344,0.000
1760229491.795,-25.391,-36.133,-31.250,-32.227,0.000
1760229491.799,-19.531,-31.738,-27.832,-21.973,0.000
1760229491.803,-14.160,-26.855,-26.367,-15.625,0.000
1760229491.807,-17.578,-26.855,-26.855,-19.531,0.000
1760229491.811,-17.090,-23.926,-26.855,-16.113,0.000
1760229491.815,-15.625,-19.043,-33.203,-17.090,0.000
1760229491.819,-11.230,-25.879,-32.715,-18.555,0.000
1760229491.823,-15.625,-32.715,-29.297,-15.137,0.000
1760229491.827,-21.973,-29.785,-34.180,-24.414,0.000
1760229491.830,-18.066,-33.203,-36.621,-19.043,0.000
1760229491.834,-26.367,-43.457,-35.156,-13.184,0.000
1760229491.838,-28.809,-39.551,-32.715,-19.531,0.000
1760229491.842,-32.227,-39.551,-29.297,-24.414,0.000
1760229491.846,-38.086,-40.527,-30.273,-29.785,0.000
1760229491.850,-29.785,-25.879,-28.809,-25.879,0.000
1760229491.854,-26.855,-26.367,-31.738,-28.809,0.000
1760229491.858,-29.785,-36.133,-36.133,-33.203,0.000
1760229491.862,-32.715,-33.691,-36.621,-27.832,0.000
1760229491.866,-28.320,-28.320,-33.691,-26.855,0.000
1760229491.870,-24.414,-27.344,-32.227,-26.855,0.000
1760229491.873,-27.832,-28.320,-27.832,-11.230,0.000
1760229491.877,-31.738,-36.133,-26.367,-12.207,0.000
1760229491.881,-36.621,-39.062,-26.367,-29.297,0.000
1760229491.885,-29.785,-35.645,-30.762,-26.367,0.000
1760229491.889,-23.438,-35.645,-31.250,-27.344,0.000
1760229491.893,-27.832,-35.645,-24.902,-36.621,0.000
1760229491.897,-21.973,-34.668,-26.367,-34.668,0.000
1760229491.901,-27.344,-34.668,-25.879,-29.297,0.000
1760229491.905,-28.809,-34.668,-22.949,-27.832,0.000
1760229491.909,-27.344,-41.992,-22.949,-28.809,0.000
1760229491.913,-32.715,-41.992,-23.926,-30.762,0.000
1760229491.916,-30.762,-38.086,-25.391,-24.902,0.000
1760229491.920,-23.926,-37.109,-31.738,-16.113,0.000
1760229491.924,-25.391,-38.086,-32.715,-21.973,0.000
1760229491.928,-35.645,-43.945,-33.691,-35.645,0.000
1760229491.932,-43.457,-43.945,-35.156,-34.668,0.000
1760229491.936,-37.598,-40.039,-28.320,-23.438,0.000
1760229491.940,-30.762,-39.062,-28.320,-21.973,0.000
1760229491.944,-29.785,-36.621,-35.645,-32.715,0.000
1760229491.948,-25.879,-37.109,-31.738,-34.668,0.000
1760229491.952,-23.926,-36.133,-23.926,-19.531,0.000
1760229491.955,-26.367,-30.762,-26.855,-12.207,0.000
1760229491.959,-19.531,-26.855,-25.879,-13.672,0.000
1760229491.963,-16.113,-24.414,-22.949,-13.672,0.000
1760229491.967,-11.230,-24.902,-25.879,-11.719,0.000
1760229491.971,-11.230,-27.832,-26.367,-20.020,0.000
1760229491.975,-22.949,-30.762,-30.762,-31.250,0.000
1760229491.979,-21.973,-27.832,-34.668,-29.785,0.000
1760229491.983,-21.484,-28.320,-29.297,-31.250,0.000
1760229491.987,-25.879,-32.715,-28.320,-28.809,0.000
1760229491.991,-21.484,-33.691,-30.273,-21.973,0.000
1760229491.995,-27.344,-40.039,-28.320,-23.438,0.000
1760229491.998,-32.715,-38.574,-27.344,-23.926,0.000
1760229492.002,-28.320,-31.250,-29.297,-22.461,0.000
1760229492.006,-26.855,-29.297,-32.715,-30.762,0.000
1760229492.010,-30.273,-28.809,-30.762,-36.621,0.000
1760229492.014,-28.320,-27.832,-26.855,-38.086,0.000
1760229492.018,-27.832,-28.320,-30.273,-35.645,0.000
1760229492.022,-25.391,-26.855,-25.879,-20.020,0.000
1760229492.026,-20.996,-26.855,-27.344,-14.648,0.000
1760229492.030,-25.879,-29.297,-35.156,-24.902,0.000
1760229492.034,-26.367,-27.344,-27.344,-21.484,0.000
1760229492.038,-18.555,-23.438,-27.832,-17.090,0.000
1760229492.041,-18.066,-20.996,-34.180,-20.508,0.000
1760229492.045,-22.949,-24.902,-34.180,-26.367,0.000
1760229492.049,-25.391,-27.344,-29.785,-25.879,0.000
1760229492.053,-21.484,-28.809,-25.391,-20.996,0.000
1760229492.057,-20.996,-31.738,-24.902,-23.926,0.000
1760229492.061,-26.367,-32.715,-21.484,-27.344,0.000
1760229492.065,-30.273,-35.645,-22.461,-27.344,0.000
1760229492.069,-29.785,-31.250,-26.855,-26.367,0.000
1760229492.073,-33.203,-27.344,-31.250,-33.691,0.000
1760229492.077,-31.250,-24.414,-35.645,-35.645,0.000
1760229492.080,-23.926,-22.461,-38.574,-30.273,0.000
1760229492.084,-26.367,-30.273,-40.039,-30.762,0.000
1760229492.088,-28.320,-29.785,-40.527,-23.438,0.000
1760229492.092,-24.902,-22.461,-31.738,-21.973,0.000
1760229492.096,-20.996,-26.367,-27.832,-29.785,0.000
1760229492.100,-23.926,-28.320,-34.668,-27.832,0.000
1760229492.104,-22.949,-25.391,-32.227,-20.996,0.000
1760229492.108,-25.879,-25.391,-25.391,-26.855,0.000
1760229492.112,-25.391,-22.461,-25.879,-28.809,0.000
1760229492.116,-22.461,-29.785,-30.273,-19.043,0.000
1760229492.119,-23.926,-33.691,-31.738,-22.949,0.000
1760229492.123,-24.414,-28.320,-32.227,-27.832,0.000
1760229492.127,-24.414,-28.809,-30.762,-21.484,0.000
1760229492.131,-26.855,-30.762,-32.715,-24.902,0.000
1760229492.135,-27.344,-28.320,-35.645,-29.297,0.000
1760229492.139,-23.438,-26.855,-30.273,-27.832,0.000
1760229492.143,-24.902,-24.902,-25.391,-24.902,0.000
1760229492.147,-31.250,-26.855,-28.320,-23.926,0.000
1760229492.151,-32.227,-30.273,-32.227,-20.508,0.000
1760229492.155,-28.320,-27.344,-27.344,-13.184,0.000
1760229492.159,-23.438,-25.391,-25.879,-18.066,0.000
1760229492.162,-36.133,-30.273,-34.668,-24.414,0.000
1760229492.166,-41.992,-34.180,-37.109,-21.973,0.000
1760229492.170,-28.320,-31.738,-27.344,-14.160,0.000
1760229492.174,-28.320,-28.320,-20.996,-19.531,0.000
1760229492.178,-29.297,-25.879,-23.926,-20.996,0.000
1760229492.182,-29.785,-20.996,-25.391,-20.020,0.000
1760229492.186,-23.926,-17.090,-20.996,-15.625,0.000
1760229492.190,-21.973,-25.391,-23.438,-18.555,0.000
1760229492.194,-29.785,-29.297,-27.344,-28.320,0.000
1760229492.198,-33.691,-24.902,-30.273,-28.320,0.000
1760229492.202,-30.762,-28.809,-30.273,-25.879,0.000
1760229492.205,-30.273,-29.785,-29.297,-23.926,0.000
1760229492.209,-35.156,-28.320,-26.367,-22.949,0.000
1760229492.213,-34.668,-34.180,-21.484,-26.367,0.000
1760229492.217,-30.762,-31.738,-20.508,-31.738,0.000
1760229492.221,-35.156,-33.203,-20.020,-33.691,0.000
1760229492.225,-36.133,-31.250,-15.137,-28.809,0.000
1760229492.229,-29.297,-24.414,-10.742,-27.344,0.000
1760229492.233,-30.273,-31.250,-13.672,-30.273,0.000
1760229492.237,-33.691,-33.203,-23.926,-28.809,0.000
1760229492.241,-27.832,-33.691,-21.484,-27.832,0.000
1760229492.244,-23.438,-30.762,-15.137,-23.438,0.000
1760229492.248,-31.250,-29.297,-20.020,-22.949,0.000
1760229492.252,-31.250,-38.574,-23.926,-20.996,0.000
1760229492.256,-26.367,-39.062,-25.879,-24.902,0.000
1760229492.260,-29.785,-33.691,-27.344,-36.133,0.000
1760229492.264,-31.250,-33.203,-25.879,-29.785,0.000
1760229492.268,-29.785,-30.762,-24.902,-25.879,0.000
1760229492.272,-34.180,-26.367,-21.973,-30.273,0.000
1760229492.276,-36.621,-28.809,-25.879,-37.109,0.000
1760229492.280,-29.297,-30.762,-25.879,-37.598,0.000
1760229492.284,-30.762,-26.367,-19.531,-33.203,0.000
1760229492.287,-29.297,-22.949,-19.043,-27.832,0.000
1760229492.291,-25.879,-22.949,-20.996,-29.785,0.000
1760229492.295,-39.062,-33.691,-25.879,-30.273,0.000
1760229492.299,-41.016,-33.203,-25.391,-26.367,0.000
1760229492.303,-34.180,-23.926,-22.461,-27.832,0.000
1760229492.307,-36.133,-25.391,-22.949,-31.250,0.000
1760229492.311,-38.574,-25.879,-25.879,-35.156,0.000
1760229492.315,-37.598,-26.855,-30.762,-36.133,0.000
1760229492.319,-38.574,-30.762,-29.785,-32.227,0.000
1760229492.323,-42.969,-29.297,-25.879,-31.738,0.000
1760229492.327,-38.086,-25.879,-25.879,-31.738,0.000
1760229492.330,-31.738,-29.297,-30.273,-30.273,0.000
1760229492.334,-28.320,-28.809,-30.762,-24.414,0.000
1760229492.338,-27.832,-23.438,-29.785,-23.438,0.000
1760229492.342,-33.203,-26.855,-27.832,-21.484,0.000
1760229492.346,-34.668,-30.273,-22.949,-20.996,0.000
1760229492.350,-32.227,-29.785,-22.949,-20.508,0.000
1760229492.354,-31.250,-30.273,-24.902,-22.949,0.000
1760229492.358,-33.691,-26.367,-24.414,-27.344,0.000
1760229492.362,-35.156,-30.273,-24.414,-29.785,0.000
1760229492.366,-34.180,-36.133,-30.762,-32.715,0.000
1760229492.369,-42.480,-28.809,-34.180,-25.879,0.000
1760229492.373,-45.410,-29.785,-33.203,-28.809,0.000
1760229492.377,-43.945,-34.668,-28.809,-32.715,0.000
1760229492.381,-45.410,-35.156,-30.273,-34.180,0.000
1760229492.385,-41.992,-37.109,-38.574,-27.832,0.000
1760229492.389,-36.621,-37.598,-34.180,-26.855,0.000
1760229492.393,-32.715,-34.180,-30.273,-35.156,0.000
1760229492.397,-39.551,-29.297,-30.762,-35.645,0.000
1760229492.401,-43.457,-28.809,-24.902,-33.691,0.000
1760229492.405,-38.086,-34.180,-26.855,-24.902,0.000
1760229492.409,-34.668,-38.574,-25.391,-28.320,0.000
1760229492.412,-35.645,-35.156,-23.926,-35.156,0.000
1760229492.416,-35.645,-32.227,-26.855,-33.691,0.000
1760229492.420,-26.855,-29.785,-29.297,-32.715,0.000
1760229492.424,-28.809,-33.203,-31.738,-34.668,0.000
1760229492.428,-36.621,-41.992,-27.344,-37.598,0.000
1760229492.432,-36.621,-37.109,-22.461,-34.180,0.000
1760229492.436,-35.645,-38.086,-26.367,-39.062,0.000
1760229492.440,-43.945,-42.480,-34.180,-49.316,0.000
1760229492.444,-50.293,-41.504,-30.762,-44.922,0.000
1760229492.448,-42.969,-40.527,-26.855,-39.551,0.000
1760229492.451,-30.762,-33.203,-24.902,-29.297,0.000
1760229492.455,-26.855,-30.273,-19.531,-21.973,0.000
1760229492.459,-32.715,-31.250,-22.949,-35.156,0.000
1760229492.463,-31.738,-27.832,-27.344,-37.109,0.000
1760229492.467,-31.738,-26.855,-23.926,-37.598,0.000
1760229492.471,-32.227,-30.762,-22.461,-30.273,0.000
1760229492.475,-34.180,-34.180,-21.484,-24.902,0.000
1760229492.479,-40.527,-35.156,-22.461,-38.574,0.000
1760229492.483,-41.992,-32.715,-23.926,-34.668,0.000
1760229492.487,-33.691,-29.297,-23.438,-22.949,0.000
1760229492.491,-30.273,-31.250,-27.832,-24.902,0.000
1760229492.494,-38.086,-36.621,-31.738,-38.574,0.000
1760229492.498,-42.969,-39.062,-29.785,-43.457,0.000
1760229492.502,-37.598,-35.156,-31.738,-31.738,0.000
1760229492.506,-33.203,-32.227,-30.762,-30.762,0.000
1760229492.510,-28.320,-34.180,-23.438,-32.715,0.000
1760229492.514,-33.203,-32.227,-28.320,-27.832,0.000
1760229492.518,-34.668,-26.855,-33.203,-19.531,0.000
1760229492.522,-26.367,-26.855,-30.273,-19.531,0.000
1760229492.526,-32.715,-26.367,-28.809,-30.273,0.000
1760229492.530,-34.180,-27.344,-27.344,-24.902,0.000
1760229492.533,-25.879,-30.273,-29.297,-14.160,0.000
1760229492.537,-26.367,-30.762,-29.785,-19.531,0.000
1760229492.541,-39.062,-32.715,-36.133,-37.109,0.000
1760229492.545,-36.133,-32.715,-36.133,-34.180,0.000
1760229492.549,-31.738,-33.691,-26.367,-19.531,0.000
1760229492.553,-28.809,-34.668,-28.320,-20.508,0.000
1760229492.557,-23.438,-30.762,-29.297,-23.438,0.000
1760229492.561,-24.902,-23.438,-21.973,-20.020,0.000
1760229492.565,-20.508,-23.926,-19.531,-21.484,0.000
1760229492.569,-17.578,-26.367,-21.484,-26.367,0.000
1760229492.573,-17.578,-25.391,-21.973,-27.832,0.000
1760229492.576,-21.484,-30.273,-23.438,-33.691,0.000
1760229492.580,-34.180,-34.180,-27.832,-30.762,0.000
1760229492.584,-35.156,-35.156,-28.320,-26.855,0.000
1760229492.588,-30.273,-35.645,-31.250,-31.738,0.000
1760229492.592,-28.320,-36.621,-33.691,-37.109,0.000
1760229492.596,-35.156,-41.016,-29.297,-42.480,0.000
1760229492.600,-41.504,-42.969,-25.879,-36.133,0.000
1760229492.604,-31.250,-42.480,-26.855,-33.691,0.000
1760229492.608,-25.391,-37.109,-29.297,-41.992,0.000
1760229492.612,-30.762,-34.668,-31.738,-45.410,0.000
1760229492.616,-35.645,-31.738,-29.785,-37.598,0.000
1760229492.619,-29.785,-31.250,-28.809,-26.855,0.000
1760229492.623,-29.297,-31.250,-27.832,-28.809,0.000
1760229492.627,-33.203,-27.344,-24.902,-27.344,0.000
1760229492.631,-27.832,-28.320,-23.438,-26.367,0.000
1760229492.635,-32.715,-30.762,-22.949,-31.250,0.000
1760229492.639,-35.156,-30.273,-20.508,-31.250,0.000
1760229492.643,-35.645,-32.715,-20.020,-35.156,0.000
1760229492.647,-35.156,-28.320,-20.508,-33.691,0.000
1760229492.651,-28.320,-25.391,-21.484,-24.902,0.000
1760229492.655,-22.461,-24.902,-21.973,-20.020,0.000
1760229492.658,-27.832,-28.320,-24.902,-26.367,0.000
1760229492.662,-33.691,-35.156,-33.691,-37.109,0.000
1760229492.666,-33.203,-30.273,-33.203,-39.062,0.000
1760229492.670,-26.367,-26.367,-29.785,-26.367,0.000
1760229492.674,-19.531,-25.391,-28.320,-23.438,0.000
1760229492.678,-30.273,-33.203,-23.438,-28.320,0.000
1760229492.682,-38.574,-41.992,-25.391,-24.902,0.000
1760229492.686,-33.203,-39.062,-29.297,-27.832,0.000
1760229492.690,-34.180,-40.039,-25.879,-40.527,0.000
1760229492.694,-34.180,-36.621,-27.344,-40.039,0.000
1760229492.698,-34.180,-29.297,-36.133,-40.527,0.000
1760229492.701,-41.504,-31.250,-36.621,-48.340,0.000
1760229492.705,-51.270,-33.203,-32.227,-49.805,0.000
1760229492.709,-47.363,-27.344,-31.738,-49.316,0.000
1760229492.713,-33.203,-27.344,-30.273,-37.598,0.000
1760229492.717,-32.715,-24.414,-25.879,-20.020,0.000
1760229492.721,-35.156,-21.973,-28.320,-31.250,0.000
1760229492.725,-30.273,-26.367,-32.227,-43.457,0.000
1760229492.729,-27.832,-20.508,-31.738,-36.133,0.000
1760229492.733,-27.344,-19.043,-29.297,-29.297,0.000
1760229492.737,-25.879,-24.414,-31.738,-29.785,0.000
1760229492.740,-31.738,-24.414,-33.691,-37.109,0.000
1760229492.744,-38.574,-26.855,-28.809,-32.715,0.000
1760229492.748,-36.133,-24.414,-31.738,-32.227,0.000
1760229492.752,-26.855,-22.461,-31.250,-26.367,0.000
1760229492.756,-26.367,-22.949,-27.832,-29.297,0.000
1760229492.760,-27.832,-24.902,-34.668,-29.785,0.000
1760229492.764,-30.762,-27.832,-33.203,-23.926,0.000
1760229492.768,-31.250,-28.809,-23.438,-25.391,0.000
1760229492.772,-26.367,-30.762,-20.996,-21.484,0.000
1760229492.776,-30.762,-32.715,-23.926,-23.438,0.000
1760229492.780,-26.855,-28.320,-28.320,-27.344,0.000
1760229492.783,-17.090,-26.367,-27.344,-25.391,0.000
1760229492.787,-27.832,-31.250,-22.949,-21.973,0.000
1760229492.791,-39.551,-31.250,-24.902,-28.320,0.000
1760229492.795,-35.645,-28.809,-27.344,-37.109,0.000
1760229492.799,-38.086,-27.832,-29.785,-42.969,0.000
1760229492.803,-39.551,-28.809,-30.273,-38.086,0.000
1760229492.807,-33.691,-28.809,-29.297,-27.832,0.000
1760229492.811,-37.109,-25.391,-26.367,-29.297,0.000
1760229492.815,-41.504,-25.879,-21.973,-32.715,0.000
1760229492.819,-30.762,-27.832,-19.531,-22.461,0.000
1760229492.822,-18.555,-22.461,-20.996,-23.438,0.000
1760229492.826,-22.461,-22.949,-21.973,-35.156,0.000
1760229492.830,-35.156,-27.832,-18.555,-30.762,0.000
1760229492.834,-34.668,-30.762,-18.555,-33.691,0.000
1760229492.838,-27.832,-35.645,-22.461,-33.203,0.000
1760229492.842,-27.344,-34.668,-26.855,-27.832,0.000
1760229492.846,-26.855,-34.668,-30.273,-30.273,0.000
1760229492.850,-21.973,-33.691,-33.203,-26.367,0.000
1760229492.854,-25.391,-31.738,-27.344,-21.973,0.000
1760229492.858,-35.156,-33.691,-23.438,-20.020,0.000
1760229492.862,-38.086,-32.715,-24.902,-17.578,0.000
1760229492.865,-37.109,-37.598,-25.879,-23.438,0.000
1760229492.869,-29.785,-33.691,-24.902,-24.902,0.000
1760229492.873,-26.367,-28.809,-27.344,-26.367,0.000
1760229492.877,-32.227,-27.832,-27.832,-33.691,0.000
1760229492.881,-37.598,-27.832,-23.926,-35.156,0.000
1760229492.885,-34.668,-31.250,-25.879,-34.668,0.000
1760229492.889,-38.086,-33.691,-31.250,-42.480,0.000
1760229492.893,-39.551,-35.156,-29.297,-38.574,0.000
1760229492.897,-38.574,-26.367,-27.832,-40.527,0.000
1760229492.901,-37.109,-23.926,-26.855,-41.504,0.000
1760229492.905,-27.832,-30.762,-24.414,-20.996,0.000
1760229492.908,-25.391,-31.250,-23.438,-16.602,0.000
1760229492.912,-26.367,-29.785,-24.902,-20.020,0.000
1760229492.916,-30.273,-24.902,-28.320,-24.414,0.000
1760229492.920,-38.574,-29.297,-30.273,-32.227,0.000
1760229492.924,-33.691,-33.203,-33.691,-29.785,0.000
1760229492.928,-31.250,-27.344,-29.785,-23.926,0.000
1760229492.932,-40.527,-30.762,-22.461,-24.902,0.000
1760229492.936,-35.645,-39.551,-23.438,-21.484,0.000
1760229492.940,-29.785,-38.574,-22.461,-22.461,0.000
1760229492.944,-38.574,-41.016,-25.879,-28.809,0.000
1760229492.947,-44.922,-43.457,-32.227,-39.062,0.000
1760229492.951,-37.109,-37.109,-29.785,-37.109,0.000
1760229492.955,-31.738,-36.133,-25.391,-27.832,0.000
1760229492.959,-38.086,-38.574,-25.391,-36.133,0.000
1760229492.963,-39.551,-37.109,-34.668,-47.852,0.000
1760229492.967,-23.926,-27.832,-33.691,-30.273,0.000
1760229492.971,-24.902,-29.785,-31.250,-19.531,0.000
1760229492.975,-33.691,-34.668,-38.086,-34.180,0.000
1760229492.979,-23.926,-31.250,-35.645,-35.156,0.000
1760229492.983,-23.926,-33.691,-31.738,-29.297,0.000
1760229492.987,-24.902,-35.156,-31.250,-29.297,0.000
1760229492.990,-31.250,-30.762,-26.855,-26.367,0.000
1760229492.994,-37.598,-28.320,-23.926,-33.203,0.000
1760229492.998,-28.320,-28.809,-25.879,-25.879,0.000
1760229493.002,-26.855,-32.227,-22.461,-11.719,0.000
1760229493.006,-35.156,-30.762,-25.391,-17.578,0.000
1760229493.010,-31.738,-23.926,-32.227,-25.391,0.000
1760229493.014,-29.297,-22.461,-34.180,-27.344,0.000
1760229493.018,-26.855,-22.949,-38.574,-25.391,0.000
1760229493.022,-37.109,-30.273,-38.086,-46.387,0.000
1760229493.026,-52.246,-36.621,-35.645,-47.852,0.000
1760229493.030,-42.969,-35.156,-31.738,-28.809,0.000
1760229493.033,-49.805,-37.109,-29.785,-26.367,0.000
1760229493.037,-45.898,-36.621,-25.879,-17.578,0.000
1760229493.041,-34.180,-32.227,-19.531,-14.648,0.000
1760229493.045,-33.203,-23.926,-21.973,-14.648,0.000
1760229493.049,-31.250,-22.949,-25.391,-15.625,0.000
1760229493.053,-30.273,-29.297,-26.367,-21.973,0.000
1760229493.057,-29.297,-28.320,-25.879,-21.973,0.000
1760229493.061,-33.203,-29.297,-27.344,-41.504,0.000
1760229493.065,-41.504,-29.297,-27.344,-43.457,0.000
1760229493.069,-37.598,-26.855,-26.855,-19.531,0.000
1760229493.072,-32.227,-21.973,-22.949,-22.461,0.000
1760229493.076,-38.086,-22.949,-18.066,-32.227,0.000
1760229493.080,-38.574,-24.902,-17.578,-26.367,0.000
1760229493.084,-29.785,-25.391,-24.902,-24.414,0.000
1760229493.088,-29.297,-25.391,-30.273,-26.367,0.000
1760229493.092,-41.016,-28.320,-26.367,-35.156,0.000
1760229493.096,-38.574,-26.855,-26.855,-39.551,0.000
1760229493.100,-32.227,-23.438,-20.996,-32.227,0.000
1760229493.104,-32.715,-23.438,-19.043,-30.273,0.000
1760229493.108,-34.668,-22.461,-25.879,-28.809,0.000
1760229493.112,-31.738,-23.438,-26.367,-32.227,0.000
1760229493.115,-24.414,-21.973,-23.438,-31.250,0.000
1760229493.119,-26.855,-18.555,-20.508,-26.367,0.000
1760229493.123,-41.992,-21.484,-19.043,-35.156,0.000
1760229493.127,-43.945,-24.902,-22.949,-35.645,0.000
1760229493.131,-37.109,-29.785,-28.320,-37.109,0.000
1760229493.135,-35.645,-30.762,-24.902,-27.344,0.000
1760229493.139,-35.645,-21.484,-22.461,-16.602,0.000
1760229493.143,-37.598,-19.043,-23.926,-25.391,0.000
1760229493.147,-39.062,-23.438,-28.809,-29.297,0.000
1760229493.151,-37.598,-25.391,-23.926,-21.484,0.000
1760229493.154,-40.039,-30.273,-16.113,-22.461,0.000
1760229493.158,-45.410,-28.809,-20.996,-33.691,0.000
1760229493.162,-42.969,-31.738,-19.531,-29.785,0.000
1760229493.166,-30.762,-35.645,-22.461,-20.996,0.000
1760229493.170,-31.738,-31.738,-28.809,-13.672,0.000
1760229493.174,-41.504,-39.062,-29.785,-25.879,0.000
1760229493.178,-45.898,-40.527,-26.855,-32.227,0.000
1760229493.182,-41.504,-35.156,-21.973,-23.438,0.000
1760229493.186,-37.109,-32.715,-27.832,-22.949,0.000
1760229493.190,-38.574,-32.715,-33.691,-31.738,0.000
1760229493.193,-43.945,-36.621,-29.297,-33.203,0.000
1760229493.197,-46.875,-34.180,-21.484,-30.273,0.000
1760229493.201,-35.156,-23.438,-22.461,-30.762,0.000
1760229493.205,-26.855,-24.414,-26.367,-32.227,0.000
1760229493.209,-39.551,-34.180,-23.438,-46.875,0.000
1760229493.213,-38.574,-39.551,-18.066,-38.574,0.000
1760229493.217,-33.203,-38.574,-18.555,-27.344,0.000
1760229493.221,-34.180,-36.133,-22.949,-36.621,0.000
1760229493.225,-35.645,-35.645,-22.949,-42.480,0.000
1760229493.229,-37.598,-35.645,-23.438,-39.062,0.000
1760229493.233,-36.621,-38.574,-21.973,-37.109,0.000
1760229493.236,-35.156,-31.250,-17.090,-37.109,0.000
1760229493.240,-30.762,-25.391,-17.090,-37.109,0.000
1760229493.244,-32.227,-30.762,-20.996,-42.969,0.000
1760229493.248,-32.227,-28.809,-22.949,-43.457,0.000
1760229493.252,-34.668,-27.832,-27.344,-42.480,0.000
1760229493.256,-34.668,-31.738,-29.297,-44.434,0.000
1760229493.260,-32.227,-33.691,-30.762,-44.434,0.000
1760229493.264,-40.527,-36.133,-36.133,-48.828,0.000
1760229493.268,-32.227,-32.715,-34.180,-45.410,0.000
1760229493.272,-17.090,-24.902,-30.273,-36.133,0.000
1760229493.276,-17.578,-20.020,-25.391,-35.645,0.000
1760229493.279,-22.949,-22.461,-25.391,-44.434,0.000
1760229493.283,-31.250,-29.297,-32.715,-43.457,0.000
1760229493.287,-28.320,-24.902,-28.320,-26.855,0.000
1760229493.291,-22.461,-19.043,-24.414,-35.645,0.000
1760229493.295,-22.949,-22.949,-21.973,-36.133,0.000
1760229493.299,-26.855,-27.832,-20.508,-30.273,0.000
1760229493.303,-20.508,-25.391,-29.297,-29.297,0.000
1760229493.307,-18.066,-24.414,-33.203,-24.414,0.000
1760229493.311,-21.484,-33.691,-27.344,-25.879,0.000
1760229493.315,-27.832,-33.691,-24.902,-22.949,0.000
1760229493.319,-37.109,-28.809,-29.785,-25.391,0.000
1760229493.322,-28.320,-32.715,-34.668,-36.621,0.000
1760229493.326,-26.367,-34.668,-32.715,-44.434,0.000
1760229493.330,-34.668,-33.691,-31.738,-36.621,0.000
1760229493.334,-32.715,-32.227,-35.156,-26.855,0.000
1760229493.338,-31.738,-30.762,-29.297,-33.203,0.000
1760229493.342,-34.668,-28.809,-25.391,-43.945,0.000
1760229493.346,-41.992,-30.273,-27.832,-41.016,0.000
1760229493.350,-43.457,-35.156,-29.785,-31.738,0.000
1760229493.354,-32.715,-34.180,-31.738,-36.133,0.000
1760229493.358,-27.832,-36.621,-31.738,-35.645,0.000
1760229493.361,-33.691,-37.598,-28.809,-33.203,0.000
1760229493.365,-35.156,-30.762,-26.367,-26.367,0.000
1760229493.369,-38.086,-28.320,-24.902,-24.902,0.000
1760229493.373,-32.715,-32.227,-25.879,-23.926,0.000
1760229493.377,-30.273,-33.691,-28.809,-18.066,0.000
1760229493.381,-39.551,-32.227,-30.273,-27.832,0.000
1760229493.385,-36.133,-31.250,-31.250,-20.996,0.000
1760229493.389,-31.250,-31.250,-32.715,-25.879,0.000
1760229493.393,-39.551,-28.320,-31.250,-40.527,0.000
1760229493.397,-36.621,-26.855,-31.738,-35.645,0.000
1760229493.401,-39.551,-28.320,-33.691,-38.574,0.000
1760229493.404,-41.504,-28.809,-34.668,-43.457,0.000
1760229493.408,-34.180,-25.391,-37.598,-44.922,0.000
1760229493.412,-38.574,-30.273,-38.574,-47.363,0.000
1760229493.416,-35.645,-35.156,-29.785,-40.527,0.000
1760229493.420,-27.832,-29.785,-31.250,-26.855,0.000
1760229493.424,-33.203,-32.715,-37.109,-22.949,0.000
1760229493.428,-38.086,-34.180,-31.738,-33.691,0.000
1760229493.432,-32.715,-28.809,-30.273,-35.156,0.000
1760229493.436,-32.227,-30.273,-34.180,-29.785,0.000
1760229493.440,-29.785,-28.809,-31.250,-28.809,0.000
1760229493.443,-28.809,-26.855,-34.180,-38.086,0.000
1760229493.447,-30.762,-32.715,-36.133,-40.527,0.000
1760229493.451,-31.250,-40.527,-32.715,-31.250,0.000
1760229493.455,-32.715,-38.574,-35.645,-28.809,0.000
1760229493.459,-30.762,-33.203,-38.086,-29.297,0.000
1760229493.463,-25.391,-32.715,-36.621,-26.855,0.000
1760229493.467,-24.902,-31.250,-38.086,-26.855,0.000
1760229493.471,-32.715,-26.367,-41.992,-33.203,0.000
1760229493.475,-35.156,-23.438,-38.574,-34.668,0.000
1760229493.479,-35.156,-29.297,-33.203,-31.250,0.000
1760229493.483,-36.621,-31.250,-29.785,-32.715,0.000
1760229493.486,-33.691,-31.738,-26.367,-31.738,0.000
1760229493.490,-28.320,-33.691,-29.297,-26.855,0.000
1760229493.494,-28.320,-26.367,-28.809,-23.926,0.000
1760229493.498,-29.785,-20.508,-25.879,-26.855,0.000
1760229493.502,-19.043,-25.879,-25.879,-20.508,0.000
1760229493.506,-16.602,-24.902,-29.297,-16.602,0.000
1760229493.510,-20.508,-23.926,-28.320,-17.090,0.000
1760229493.514,-24.902,-25.391,-27.344,-16.113,0.000
1760229493.518,-30.273,-21.973,-26.367,-25.391,0.000
1760229493.522,-28.320,-18.555,-22.949,-17.578,0.000
1760229493.525,-22.461,-21.973,-24.902,-9.766,0.000
1760229493.529,-26.855,-29.297,-27.344,-14.648,0.000
1760229493.533,-25.879,-28.320,-23.926,-13.184,0.000
1760229493.537,-14.648,-29.297,-24.414,-6.836,0.000
1760229493.541,-25.879,-29.297,-28.320,-18.066,0.000
1760229493.545,-41.992,-26.367,-24.902,-29.297,0.000
1760229493.549,-34.180,-28.320,-21.484,-23.438,0.000
1760229493.553,-20.020,-25.879,-18.066,-10.742,0.000
1760229493.557,-17.578,-20.508,-17.578,-8.789,0.000
1760229493.561,-21.973,-21.484,-21.973,-20.508,0.000
1760229493.565,-21.973,-25.391,-20.020,-19.043,0.000
1760229493.568,-17.578,-24.902,-13.672,-12.207,0.000
1760229493.572,-19.043,-20.508,-12.207,-9.277,0.000
1760229493.576,-26.855,-20.996,-12.695,-14.648,0.000
1760229493.580,-23.438,-22.949,-11.719,-18.555,0.000
1760229493.584,-20.996,-22.949,-14.160,-13.184,0.000
1760229493.588,-15.137,-25.879,-18.555,-11.230,0.000
1760229493.592,-20.020,-32.227,-17.090,-16.113,0.000
1760229493.596,-36.133,-31.738,-20.020,-24.414,0.000
1760229493.600,-26.367,-25.879,-24.414,-22.949,0.000
1760229493.604,-24.902,-28.320,-22.461,-12.695,0.000
1760229493.608,-31.738,-34.180,-25.879,-18.555,0.000
1760229493.611,-26.855,-32.227,-28.809,-23.438,0.000
1760229493.615,-30.273,-30.762,-25.391,-10.742,0.000
1760229493.619,-29.785,-29.785,-22.461,-4.883,0.000
1760229493.623,-21.484,-26.367,-22.949,-18.555,0.000
1760229493.627,-16.602,-25.879,-27.344,-19.043,0.000
1760229493.631,-25.879,-29.297,-29.785,-21.484,0.000
1760229493.635,-30.273,-36.133,-27.344,-20.996,0.000
1760229493.639,-24.902,-35.156,-20.020,-12.695,0.000
1760229493.643,-23.926,-23.926,-20.508,-18.066,0.000
1760229493.647,-28.320,-23.926,-22.949,-23.438,0.000
1760229493.650,-30.762,-28.809,-20.996,-21.484,0.000
1760229493.654,-20.996,-30.273,-20.020,-12.207,0.000
1760229493.658,-17.578,-27.832,-14.648,-4.883,0.000
1760229493.662,-24.902,-27.344,-15.137,-18.555,0.000
1760229493.666,-26.855,-32.715,-21.484,-24.414,0.000
1760229493.670,-27.344,-38.086,-25.391,-16.113,0.000
1760229493.674,-27.344,-37.109,-23.926,-12.695,0.000
1760229493.678,-34.668,-36.621,-25.391,-17.090,0.000
1760229493.682,-45.410,-36.621,-27.344,-28.809,0.000
1760229493.686,-35.645,-33.691,-28.809,-21.484,0.000
1760229493.690,-32.715,-32.227,-30.273,-17.578,0.000
1760229493.693,-41.016,-30.273,-30.273,-22.949,0.000
1760229493.697,-31.250,-29.297,-32.227,-27.832,0.000
1760229493.701,-22.949,-29.297,-31.738,-21.973,0.000
1760229493.705,-25.879,-32.227,-31.738,-14.648,0.000
1760229493.709,-33.203,-34.668,-32.227,-30.762,0.000
1760229493.713,-34.668,-33.691,-33.203,-41.992,0.000
1760229493.717,-28.809,-30.273,-35.156,-35.645,0.000
1760229493.721,-30.273,-29.785,-37.109,-27.344,0.000
1760229493.725,-30.762,-34.180,-36.133,-34.180,0.000
1760229493.729,-35.645,-37.109,-32.715,-41.016,0.000
1760229493.733,-45.410,-34.668,-30.273,-34.180,0.000
1760229493.736,-41.504,-35.156,-29.785,-26.367,0.000
1760229493.740,-39.551,-40.039,-29.785,-27.344,0.000
1760229493.744,-49.316,-36.621,-29.297,-37.598,0.000
1760229493.748,-46.387,-32.715,-26.855,-31.250,0.000
1760229493.752,-44.434,-35.645,-24.902,-20.020,0.000
1760229493.756,-43.945,-30.762,-30.762,-31.250,0.000
1760229493.760,-41.504,-29.297,-29.785,-38.086,0.000
1760229493.764,-41.016,-30.273,-28.320,-33.691,0.000
1760229493.768,-33.203,-29.785,-28.809,-35.645,0.000
1760229493.772,-18.066,-25.391,-26.855,-22.461,0.000
1760229493.775,-16.113,-19.531,-29.785,-26.367,0.000
1760229493.779,-26.855,-23.926,-31.738,-34.668,0.000
1760229493.783,-24.902,-26.855,-31.250,-21.973,0.000
1760229493.787,-26.855,-21.484,-32.715,-33.203,0.000
1760229493.791,-27.344,-29.297,-44.434,-44.434,0.000
1760229493.795,-22.949,-36.621,-41.016,-26.855,0.000
1760229493.799,-27.832,-29.785,-30.762,-23.438,0.000
1760229493.803,-18.066,-22.461,-33.691,-31.250,0.000
1760229493.807,-18.066,-17.578,-35.645,-35.645,0.000
1760229493.811,-25.391,-17.090,-34.180,-30.273,0.000
1760229493.815,-24.414,-19.531,-37.598,-26.367,0.000
1760229493.818,-33.691,-26.367,-38.086,-28.809,0.000
1760229493.822,-43.457,-31.250,-34.180,-29.297,0.000
1760229493.826,-38.574,-30.762,-31.738,-26.367,0.000
1760229493.830,-39.062,-30.762,-30.762,-32.227,0.000
1760229493.834,-42.969,-30.762,-30.762,-31.738,0.000
1760229493.838,-40.527,-32.227,-33.203,-23.926,0.000
1760229493.842,-38.086,-34.668,-31.250,-23.438,0.000
1760229493.846,-36.133,-33.691,-29.297,-27.832,0.000
1760229493.850,-39.062,-32.227,-32.715,-32.715,0.000
1760229493.854,-46.387,-31.738,-34.668,-34.668,0.000
1760229493.857,-40.039,-31.738,-30.273,-29.297,0.000
1760229493.861,-33.691,-28.809,-25.391,-27.344,0.000
1760229493.865,-35.156,-30.762,-26.367,-31.738,0.000
1760229493.869,-27.832,-33.203,-21.484,-21.973,0.000
1760229493.873,-24.902,-30.273,-23.438,-22.949,0.000
1760229493.877,-33.203,-27.832,-23.438,-29.297,0.000
1760229493.881,-29.297,-26.855,-20.996,-20.508,0.000
1760229493.885,-22.949,-24.902,-24.414,-6.348,0.000
1760229493.889,-31.738,-24.414,-22.461,-5.859,0.000
1760229493.893,-41.992,-28.320,-25.391,-22.461,0.000
1760229493.897,-34.180,-29.297,-23.926,-19.043,0.000
1760229493.900,-27.344,-29.785,-17.578,-10.254,0.000
1760229493.904,-30.762,-30.762,-19.531,-12.695,0.000
1760229493.908,-39.551,-32.227,-22.949,-19.043,0.000
1760229493.912,-44.434,-30.273,-20.508,-22.949,0.000
1760229493.916,-37.598,-33.203,-20.508,-24.414,0.000
1760229493.920,-31.250,-33.691,-23.438,-19.531,0.000
1760229493.924,-33.203,-29.297,-23.926,-25.391,0.000
1760229493.928,-33.203,-27.344,-19.043,-24.414,0.000
1760229493.932,-30.762,-26.367,-11.719,-12.695,0.000
1760229493.936,-27.832,-25.879,-18.555,-16.113,0.000
1760229493.939,-27.344,-26.855,-22.949,-23.438,0.000
1760229493.943,-33.691,-24.902,-19.531,-34.180,0.000
1760229493.947,-29.297,-18.555,-20.508,-32.715,0.000
1760229493.951,-32.715,-21.484,-25.879,-26.855,0.000
1760229493.955,-34.668,-26.367,-26.855,-28.320,0.000
1760229493.959,-28.320,-31.250,-23.438,-21.973,0.000
1760229493.963,-30.762,-34.180,-24.414,-20.020,0.000
1760229493.967,-34.180,-34.668,-23.438,-28.809,0.000
1760229493.971,-25.879,-29.785,-23.926,-22.461,0.000
1760229493.975,-30.762,-26.855,-29.297,-23.926,0.000
1760229493.979,-42.480,-28.320,-27.344,-40.039,0.000
1760229493.982,-31.250,-25.391,-27.344,-37.598,0.000
1760229493.986,-24.414,-24.414,-32.227,-28.809,0.000
1760229493.990,-32.715,-25.879,-26.855,-29.297,0.000
1760229493.994,-39.062,-24.414,-25.879,-28.809,0.000
1760229493.998,-29.297,-19.531,-28.320,-20.020,0.000
1760229494.002,-27.344,-23.926,-23.926,-20.508,0.000
1760229494.006,-39.062,-29.785,-21.973,-34.668,0.000
1760229494.010,-35.156,-27.344,-20.020,-35.156,0.000
1760229494.014,-34.668,-27.344,-21.484,-31.738,0.000
1760229494.018,-34.668,-28.809,-22.949,-33.691,0.000
1760229494.022,-31.738,-25.391,-21.484,-34.180,0.000
1760229494.025,-35.645,-21.973,-20.020,-40.039,0.000
1760229494.029,-28.320,-23.438,-22.461,-40.039,0.000
1760229494.033,-27.344,-12.695,-11.230,-29.297,0.000
1760229494.037,-34.668,-7.812,-2.441,-21.973,0.000
1760229494.041,-35.156,-16.113,-7.812,-27.344,0.000
1760229494.045,-41.504,-15.625,-1.465,-44.922,0.000
1760229494.049,-51.758,5.859,8.789,-57.617,0.000
1760229494.053,-77.148,13.184,7.812,-68.848,0.000
1760229494.057,-90.332,-3.418,12.695,-80.078,0.000
1760229494.061,-96.680,7.324,15.625,-96.191,0.000
1760229494.064,-126.465,10.742,24.902,-128.418,0.000
1760229494.068,-140.137,22.461,44.922,-149.902,0.000
1760229494.072,-160.645,30.273,44.434,-167.480,0.000
1760229494.076,-196.777,19.531,51.270,-192.871,0.000
1760229494.080,-223.633,36.133,73.730,-218.750,0.000
1760229494.084,-250.977,45.410,82.520,-246.094,0.000
1760229494.088,-264.160,51.758,88.379,-263.672,0.000
1760229494.092,-265.137,69.824,94.727,-275.391,0.000
1760229494.096,-277.344,78.125,93.750,-289.062,0.000
1760229494.100,-276.855,73.242,86.426,-277.832,0.000
1760229494.104,-272.461,74.707,76.660,-268.555,0.000
1760229494.107,-261.719,71.777,70.801,-257.812,0.000
1760229494.111,-250.977,71.777,71.777,-248.047,0.000
1760229494.115,-245.605,70.801,71.289,-247.559,0.000
1760229494.119,-230.957,68.848,59.082,-236.816,0.000
1760229494.123,-212.402,65.430,60.547,-212.891,0.000
1760229494.127,-195.312,56.641,62.012,-194.824,0.000
1760229494.131,-174.316,50.781,52.246,-179.688,0.000
1760229494.135,-154.297,49.316,46.387,-156.738,0.000
1760229494.139,-133.789,42.480,39.551,-135.254,0.000
1760229494.143,-115.234,32.227,32.227,-117.188,0.000
1760229494.146,-91.309,17.090,30.273,-92.773,0.000
1760229494.150,-71.289,9.766,25.391,-68.359,0.000
1760229494.154,-63.477,7.812,6.348,-55.664,0.000
1760229494.158,-41.992,-1.465,-6.348,-40.039,0.000
1760229494.162,-24.414,-7.812,-15.625,-27.832,0.000
1760229494.166,-15.137,-20.508,-22.461,-17.090,0.000
1760229494.170,-6.836,-37.598,-24.414,15.137,0.000
1760229494.174,0.000,-42.480,-37.109,20.020,0.000
1760229494.178,4.395,-42.969,-53.711,10.254,0.000
1760229494.182,16.602,-51.270,-62.500,26.367,0.000
1760229494.186,37.598,-56.641,-60.059,45.898,0.000
1760229494.189,39.551,-59.082,-57.617,50.781,0.000
1760229494.193,43.945,-63.477,-57.129,53.223,0.000
1760229494.197,56.152,-60.547,-62.988,62.012,0.000
1760229494.201,69.824,-57.129,-68.359,67.383,0.000
1760229494.205,75.195,-53.711,-67.383,78.613,0.000
1760229494.209,64.941,-60.059,-72.754,76.172,0.000
1760229494.213,62.500,-70.312,-73.242,60.059,0.000
1760229494.217,69.824,-73.730,-73.242,68.359,0.000
1760229494.221,82.031,-67.871,-75.684,75.195,0.000
1760229494.225,82.031,-66.895,-74.707,66.895,0.000
1760229494.228,66.406,-71.289,-69.824,60.547,0.000
1760229494.232,62.500,-70.312,-70.801,62.012,0.000
1760229494.236,63.965,-69.336,-74.707,62.500,0.000
1760229494.240,54.688,-67.871,-70.312,60.547,0.000
1760229494.244,46.387,-74.219,-73.730,50.781,0.000
1760229494.248,46.387,-79.590,-80.078,40.527,0.000
1760229494.252,41.992,-70.312,-78.125,43.945,0.000
1760229494.256,40.039,-63.477,-72.754,44.434,0.000
1760229494.260,48.828,-64.941,-66.406,51.270,0.000
1760229494.264,47.363,-62.500,-65.918,55.176,0.000
1760229494.268,42.969,-63.965,-66.406,49.316,0.000
1760229494.271,42.969,-66.406,-63.965,53.223,0.000
1760229494.275,38.086,-62.988,-68.359,37.109,0.000
1760229494.279,33.203,-52.734,-65.918,31.738,0.000
1760229494.283,31.738,-45.898,-62.500,33.203,0.000
1760229494.287,39.551,-52.246,-60.547,33.203,0.000
1760229494.291,38.574,-57.617,-59.082,27.344,0.000
1760229494.295,31.738,-48.828,-60.547,20.996,0.000
1760229494.299,30.762,-47.852,-58.105,28.320,0.000
1760229494.303,41.016,-51.270,-54.199,37.598,0.000
1760229494.307,42.480,-48.340,-57.129,37.598,0.000
1760229494.310,29.785,-44.922,-57.129,23.438,0.000
1760229494.314,24.902,-44.922,-48.828,17.090,0.000
1760229494.318,20.996,-46.387,-50.293,25.879,0.000
1760229494.322,11.719,-42.480,-51.270,20.996,0.000
1760229494.326,6.348,-42.969,-43.945,15.137,0.000
1760229494.330,8.301,-47.363,-41.504,24.902,0.000
1760229494.334,5.859,-40.039,-45.410,18.555,0.000
1760229494.338,3.906,-37.109,-41.504,13.184,0.000
1760229494.342,1.953,-44.922,-36.621,12.695,0.000
1760229494.346,5.859,-44.434,-40.527,7.812,0.000
1760229494.350,12.207,-42.969,-38.574,11.230,0.000
1760229494.353,1.953,-51.270,-32.227,8.789,0.000
1760229494.357,-5.371,-54.688,-31.250,0.000,0.000
1760229494.361,-5.859,-52.734,-35.645,-3.418,0.000
1760229494.365,-6.348,-48.828,-36.133,2.441,0.000
1760229494.369,-6.348,-49.316,-27.832,6.348,0.000
1760229494.373,-6.836,-44.922,-26.367,-1.465,0.000
1760229494.377,-4.395,-39.062,-34.180,-6.836,0.000
1760229494.381,-3.906,-43.945,-39.551,-7.812,0.000
1760229494.385,-0.977,-45.410,-39.062,-0.977,0.000
1760229494.389,-5.859,-43.457,-35.645,-2.930,0.000
1760229494.393,-17.578,-46.875,-35.156,-16.602,0.000
1760229494.396,-18.066,-47.363,-33.691,-13.184,0.000
1760229494.400,-14.648,-42.480,-41.016,-12.207,0.000
1760229494.404,-10.254,-39.062,-36.621,-18.555,0.000
1760229494.408,-9.766,-39.551,-32.715,-13.672,0.000
1760229494.412,-22.949,-42.480,-41.016,-18.066,0.000
1760229494.416,-22.949,-41.016,-40.527,-28.809,0.000
1760229494.420,-14.160,-41.016,-37.598,-20.508,0.000
1760229494.424,-14.648,-41.504,-37.598,-20.996,0.000
1760229494.428,-14.160,-40.039,-40.527,-24.902,0.000
1760229494.432,-12.695,-44.922,-42.969,-20.996,0.000
1760229494.435,-12.207,-44.922,-40.527,-21.484,0.000
1760229494.439,-7.324,-39.551,-38.574,-16.113,0.000
1760229494.443,-11.230,-41.016,-35.645,-14.160,0.000
1760229494.447,-14.160,-35.645,-36.133,-24.414,0.000
1760229494.451,-9.766,-30.762,-40.527,-23.438,0.000
1760229494.455,-5.859,-37.598,-35.645,-10.254,0.000
1760229494.459,-10.742,-38.574,-37.109,-11.719,0.000
1760229494.463,-13.184,-36.133,-42.969,-22.461,0.000
1760229494.467,-8.301,-39.551,-37.109,-9.766,0.000
1760229494.471,-7.324,-36.133,-32.715,0.000,0.000
1760229494.475,-15.137,-39.062,-30.273,-14.648,0.000
1760229494.478,-23.926,-41.992,-28.809,-27.832,0.000
1760229494.482,-29.297,-35.645,-35.156,-23.926,0.000
1760229494.486,-30.762,-36.621,-36.133,-17.090,0.000
1760229494.490,-26.855,-36.621,-33.203,-18.066,0.000
1760229494.494,-27.832,-35.156,-36.621,-24.414,0.000
1760229494.498,-22.949,-39.062,-35.156,-21.484,0.000
1760229494.502,-18.555,-36.621,-29.785,-6.348,0.000
1760229494.506,-19.531,-38.574,-33.203,-7.324,0.000
1760229494.510,-18.066,-34.668,-36.133,-12.207,0.000
1760229494.514,-22.949,-31.738,-35.645,-17.578,0.000
1760229494.518,-26.367,-35.645,-30.762,-24.414,0.000
1760229494.521,-19.531,-23.926,-21.973,-22.949,0.000
1760229494.525,-11.719,-17.578,-17.090,-14.648,0.000
1760229494.529,-20.508,-23.926,-23.438,-22.949,0.000
1760229494.533,-28.809,-28.809,-27.344,-30.762,0.000
1760229494.537,-20.508,-26.855,-25.391,-22.949,0.000
1760229494.541,-19.531,-23.926,-29.297,-31.738,0.000
1760229494.545,-29.785,-26.367,-28.320,-39.062,0.000
1760229494.549,-35.156,-32.227,-25.391,-30.762,0.000
1760229494.553,-27.344,-32.715,-22.949,-15.137,0.000
1760229494.557,-19.531,-24.902,-20.996,-10.742,0.000
1760229494.560,-26.367,-26.855,-23.926,-24.902,0.000
1760229494.564,-29.785,-29.785,-24.414,-28.809,0.000
1760229494.568,-22.949,-26.367,-24.414,-17.578,0.000
1760229494.572,-15.625,-24.902,-28.320,-10.742,0.000
1760229494.576,-19.043,-21.973,-30.762,-18.066,0.000
1760229494.580,-18.066,-22.461,-32.227,-18.066,0.000
1760229494.584,-24.902,-25.391,-32.227,-18.555,0.000
1760229494.588,-33.203,-31.738,-31.250,-26.855,0.000
1760229494.592,-31.738,-33.203,-34.180,-27.344,0.000
1760229494.596,-36.621,-28.320,-32.715,-34.668,0.000
1760229494.600,-33.691,-23.926,-31.250,-34.180,0.000
1760229494.603,-28.809,-27.832,-33.691,-28.809,0.000
1760229494.607,-26.855,-30.762,-26.855,-34.180,0.000
1760229494.611,-27.832,-23.926,-20.020,-30.762,0.000
1760229494.615,-26.367,-25.879,-17.578,-20.996,0.000
1760229494.619,-26.855,-31.738,-21.484,-17.578,0.000
1760229494.623,-27.832,-32.715,-30.273,-26.855,0.000
1760229494.627,-40.039,-38.574,-32.715,-37.598,0.000
1760229494.631,-35.645,-33.691,-31.738,-37.109,0.000
1760229494.635,-20.996,-29.785,-34.180,-30.273,0.000
1760229494.639,-29.297,-32.715,-37.109,-30.273,0.000
1760229494.642,-40.039,-30.762,-35.645,-37.109,0.000
1760229494.646,-36.621,-27.832,-32.227,-30.273,0.000
1760229494.650,-30.762,-27.832,-32.227,-21.973,0.000
1760229494.654,-32.715,-25.391,-33.203,-23.438,0.000
1760229494.658,-35.645,-26.367,-32.227,-32.227,0.000
1760229494.662,-37.598,-30.762,-33.203,-37.598,0.000
1760229494.666,-41.016,-36.621,-33.691,-29.297,0.000
1760229494.670,-36.133,-31.250,-34.668,-20.508,0.000
1760229494.674,-36.621,-23.438,-34.180,-25.879,0.000
1760229494.678,-41.992,-28.320,-32.227,-29.785,0.000
1760229494.682,-41.016,-36.621,-31.250,-21.973,0.000
1760229494.685,-39.062,-37.598,-29.785,-20.508,0.000
1760229494.689,-32.715,-27.832,-29.297,-26.855,0.000
1760229494.693,-29.297,-24.902,-27.832,-28.809,0.000
1760229494.697,-30.273,-30.273,-29.785,-35.645,0.000
1760229494.701,-26.367,-31.738,-26.855,-28.320,0.000
1760229494.705,-21.973,-26.367,-23.438,-19.531,0.000
1760229494.709,-21.484,-20.508,-25.391,-32.227,0.000
1760229494.713,-23.438,-23.926,-23.438,-25.879,0.000
1760229494.717,-23.438,-22.949,-24.902,-22.461,0.000
1760229494.721,-18.066,-27.832,-30.762,-24.902,0.000
1760229494.724,-22.461,-34.668,-28.809,-28.320,0.000
1760229494.728,-35.645,-34.668,-23.438,-42.480,0.000
1760229494.732,-28.809,-28.809,-20.996,-34.668,0.000
1760229494.736,-15.625,-26.367,-20.020,-28.809,0.000
1760229494.740,-20.508,-31.738,-18.066,-25.879,0.000
1760229494.744,-24.902,-27.832,-13.184,-21.973,0.000
1760229494.748,-29.785,-29.297,-10.254,-32.227,0.000
1760229494.752,-31.250,-31.738,-16.602,-29.785,0.000
1760229494.756,-30.762,-32.715,-20.996,-21.484,0.000
1760229494.760,-35.156,-34.180,-21.973,-27.832,0.000
1760229494.764,-36.621,-33.203,-25.391,-34.668,0.000
1760229494.767,-30.762,-32.227,-29.785,-27.832,0.000
1760229494.771,-19.043,-27.832,-33.691,-23.438,0.000
